SpectraSuite Data File
++++++++++++++++++++++++++++++++++++
Date: Thu May 04 18:21:46 BRT 2017
User: aluno
Dark Spectrum Present: No
Reference Spectrum Present: No
Number of Sampled Component Spectra: 1
Spectrometers: USB2+H08582
Integration Time (usec): 79000 (USB2+H08582)
Spectra Averaged: 1 (USB2+H08582)
Boxcar Smoothing: 0 (USB2+H08582)
Correct for Electrical Dark: No (USB2+H08582)
Strobe/Lamp Enabled: No (USB2+H08582)
Correct for Detector Non-linearity: No (USB2+H08582)
Correct for Stray Light: No (USB2+H08582)
Number of Pixels in Processed Spectrum: 2048
>>>>>Begin Processed Spectral Data<<<<<
0,00	414,27
1,00	414,27
2,00	414,27
3,00	301,93
4,00	322,99
5,00	348,74
6,00	315,97
7,00	276,18
8,00	304,27
9,00	308,95
10,00	241,08
11,00	283,20
12,00	304,27
13,00	248,10
14,00	318,31
15,00	271,50
16,00	294,91
17,00	362,78
18,00	376,83
19,00	337,04
20,00	292,57
21,00	372,15
22,00	337,04
23,00	421,30
24,00	379,17
25,00	444,70
26,00	355,76
27,00	355,76
28,00	379,17
29,00	418,96
30,00	423,64
31,00	404,91
32,00	468,11
33,00	500,87
34,00	416,62
35,00	475,13
36,00	475,13
37,00	514,92
38,00	470,45
39,00	493,85
40,00	444,70
41,00	433,00
42,00	444,70
43,00	472,79
44,00	482,15
45,00	475,13
46,00	421,30
47,00	430,66
48,00	486,83
49,00	418,96
50,00	400,23
51,00	507,90
52,00	442,36
53,00	393,21
54,00	395,55
55,00	430,66
56,00	496,19
57,00	500,87
58,00	418,96
59,00	486,83
60,00	444,70
61,00	421,30
62,00	578,11
63,00	479,81
64,00	430,66
65,00	418,96
66,00	433,00
67,00	437,68
68,00	400,23
69,00	365,12
70,00	397,89
71,00	397,89
72,00	372,15
73,00	510,24
74,00	449,38
75,00	475,13
76,00	475,13
77,00	407,25
78,00	458,74
79,00	463,43
80,00	491,51
81,00	433,00
82,00	491,51
83,00	468,11
84,00	423,64
85,00	402,57
86,00	360,44
87,00	428,32
88,00	463,43
89,00	463,43
90,00	507,90
91,00	465,77
92,00	400,23
93,00	444,70
94,00	463,43
95,00	433,00
96,00	514,92
97,00	456,40
98,00	465,77
99,00	486,83
100,00	442,36
101,00	393,21
102,00	454,06
103,00	447,04
104,00	465,77
105,00	395,55
106,00	442,36
107,00	423,64
108,00	430,66
109,00	472,79
110,00	458,74
111,00	449,38
112,00	447,04
113,00	395,55
114,00	416,62
115,00	435,34
116,00	461,09
117,00	414,27
118,00	440,02
119,00	425,98
120,00	435,34
121,00	463,43
122,00	435,34
123,00	449,38
124,00	423,64
125,00	477,47
126,00	486,83
127,00	458,74
128,00	433,00
129,00	451,72
130,00	468,11
131,00	484,49
132,00	416,62
133,00	470,45
134,00	376,83
135,00	458,74
136,00	458,74
137,00	498,53
138,00	449,38
139,00	458,74
140,00	440,02
141,00	491,51
142,00	465,77
143,00	482,15
144,00	454,06
145,00	440,02
146,00	472,79
147,00	463,43
148,00	482,15
149,00	435,34
150,00	465,77
151,00	493,85
152,00	442,36
153,00	463,43
154,00	461,09
155,00	444,70
156,00	437,68
157,00	449,38
158,00	538,32
159,00	470,45
160,00	374,49
161,00	470,45
162,00	486,83
163,00	456,40
164,00	463,43
165,00	465,77
166,00	437,68
167,00	449,38
168,00	479,81
169,00	470,45
170,00	449,38
171,00	428,32
172,00	498,53
173,00	435,34
174,00	428,32
175,00	510,24
176,00	519,60
177,00	461,09
178,00	512,58
179,00	470,45
180,00	437,68
181,00	500,87
182,00	477,47
183,00	482,15
184,00	498,53
185,00	468,11
186,00	458,74
187,00	393,21
188,00	428,32
189,00	411,93
190,00	482,15
191,00	458,74
192,00	433,00
193,00	433,00
194,00	498,53
195,00	458,74
196,00	435,34
197,00	524,28
198,00	435,34
199,00	517,26
200,00	493,85
201,00	418,96
202,00	458,74
203,00	454,06
204,00	421,30
205,00	461,09
206,00	477,47
207,00	528,96
208,00	489,17
209,00	489,17
210,00	430,66
211,00	430,66
212,00	418,96
213,00	451,72
214,00	461,09
215,00	456,40
216,00	475,13
217,00	472,79
218,00	477,47
219,00	409,59
220,00	470,45
221,00	400,23
222,00	416,62
223,00	519,60
224,00	461,09
225,00	456,40
226,00	451,72
227,00	538,32
228,00	463,43
229,00	355,76
230,00	404,91
231,00	407,25
232,00	404,91
233,00	458,74
234,00	521,94
235,00	482,15
236,00	468,11
237,00	411,93
238,00	500,87
239,00	447,04
240,00	486,83
241,00	458,74
242,00	505,56
243,00	475,13
244,00	482,15
245,00	510,24
246,00	493,85
247,00	517,26
248,00	505,56
249,00	498,53
250,00	418,96
251,00	484,49
252,00	395,55
253,00	397,89
254,00	458,74
255,00	440,02
256,00	369,80
257,00	496,19
258,00	496,19
259,00	461,09
260,00	477,47
261,00	430,66
262,00	416,62
263,00	475,13
264,00	442,36
265,00	449,38
266,00	430,66
267,00	421,30
268,00	454,06
269,00	491,51
270,00	475,13
271,00	435,34
272,00	423,64
273,00	440,02
274,00	486,83
275,00	409,59
276,00	468,11
277,00	491,51
278,00	440,02
279,00	470,45
280,00	470,45
281,00	444,70
282,00	449,38
283,00	423,64
284,00	526,62
285,00	517,26
286,00	451,72
287,00	423,64
288,00	437,68
289,00	414,27
290,00	491,51
291,00	430,66
292,00	491,51
293,00	477,47
294,00	475,13
295,00	503,22
296,00	428,32
297,00	449,38
298,00	456,40
299,00	456,40
300,00	472,79
301,00	437,68
302,00	456,40
303,00	491,51
304,00	430,66
305,00	421,30
306,00	433,00
307,00	554,71
308,00	493,85
309,00	500,87
310,00	496,19
311,00	444,70
312,00	470,45
313,00	496,19
314,00	463,43
315,00	470,45
316,00	498,53
317,00	440,02
318,00	444,70
319,00	472,79
320,00	465,77
321,00	440,02
322,00	402,57
323,00	489,17
324,00	428,32
325,00	442,36
326,00	435,34
327,00	517,26
328,00	465,77
329,00	524,28
330,00	430,66
331,00	514,92
332,00	468,11
333,00	468,11
334,00	461,09
335,00	477,47
336,00	442,36
337,00	475,13
338,00	491,51
339,00	451,72
340,00	507,90
341,00	507,90
342,00	486,83
343,00	458,74
344,00	498,53
345,00	493,85
346,00	482,15
347,00	461,09
348,00	425,98
349,00	414,27
350,00	477,47
351,00	463,43
352,00	449,38
353,00	428,32
354,00	440,02
355,00	491,51
356,00	437,68
357,00	421,30
358,00	491,51
359,00	535,98
360,00	425,98
361,00	484,49
362,00	440,02
363,00	468,11
364,00	470,45
365,00	433,00
366,00	428,32
367,00	458,74
368,00	451,72
369,00	472,79
370,00	437,68
371,00	414,27
372,00	479,81
373,00	400,23
374,00	493,85
375,00	397,89
376,00	491,51
377,00	482,15
378,00	440,02
379,00	521,94
380,00	479,81
381,00	433,00
382,00	468,11
383,00	475,13
384,00	456,40
385,00	465,77
386,00	451,72
387,00	454,06
388,00	447,04
389,00	477,47
390,00	421,30
391,00	433,00
392,00	435,34
393,00	437,68
394,00	442,36
395,00	468,11
396,00	461,09
397,00	435,34
398,00	454,06
399,00	456,40
400,00	479,81
401,00	458,74
402,00	484,49
403,00	456,40
404,00	395,55
405,00	458,74
406,00	545,34
407,00	479,81
408,00	552,37
409,00	442,36
410,00	528,96
411,00	470,45
412,00	449,38
413,00	484,49
414,00	411,93
415,00	430,66
416,00	489,17
417,00	433,00
418,00	435,34
419,00	484,49
420,00	428,32
421,00	425,98
422,00	447,04
423,00	456,40
424,00	435,34
425,00	489,17
426,00	437,68
427,00	479,81
428,00	449,38
429,00	430,66
430,00	479,81
431,00	411,93
432,00	425,98
433,00	447,04
434,00	404,91
435,00	465,77
436,00	407,25
437,00	470,45
438,00	444,70
439,00	435,34
440,00	423,64
441,00	463,43
442,00	479,81
443,00	379,17
444,00	423,64
445,00	465,77
446,00	421,30
447,00	484,49
448,00	521,94
449,00	482,15
450,00	430,66
451,00	465,77
452,00	493,85
453,00	428,32
454,00	418,96
455,00	489,17
456,00	433,00
457,00	456,40
458,00	470,45
459,00	489,17
460,00	479,81
461,00	430,66
462,00	475,13
463,00	435,34
464,00	425,98
465,00	465,77
466,00	484,49
467,00	456,40
468,00	449,38
469,00	465,77
470,00	435,34
471,00	416,62
472,00	428,32
473,00	430,66
474,00	444,70
475,00	458,74
476,00	416,62
477,00	468,11
478,00	440,02
479,00	461,09
480,00	423,64
481,00	456,40
482,00	437,68
483,00	444,70
484,00	421,30
485,00	440,02
486,00	425,98
487,00	409,59
488,00	418,96
489,00	440,02
490,00	468,11
491,00	456,40
492,00	407,25
493,00	482,15
494,00	447,04
495,00	416,62
496,00	505,56
497,00	447,04
498,00	468,11
499,00	475,13
500,00	444,70
501,00	510,24
502,00	425,98
503,00	482,15
504,00	430,66
505,00	423,64
506,00	456,40
507,00	414,27
508,00	404,91
509,00	456,40
510,00	489,17
511,00	470,45
512,00	486,83
513,00	465,77
514,00	540,66
515,00	517,26
516,00	470,45
517,00	479,81
518,00	416,62
519,00	416,62
520,00	491,51
521,00	442,36
522,00	447,04
523,00	451,72
524,00	390,87
525,00	472,79
526,00	433,00
527,00	449,38
528,00	390,87
529,00	449,38
530,00	456,40
531,00	517,26
532,00	397,89
533,00	514,92
534,00	479,81
535,00	465,77
536,00	404,91
537,00	411,93
538,00	456,40
539,00	503,22
540,00	468,11
541,00	470,45
542,00	418,96
543,00	493,85
544,00	493,85
545,00	442,36
546,00	430,66
547,00	449,38
548,00	456,40
549,00	449,38
550,00	444,70
551,00	482,15
552,00	421,30
553,00	461,09
554,00	451,72
555,00	404,91
556,00	475,13
557,00	425,98
558,00	418,96
559,00	470,45
560,00	482,15
561,00	437,68
562,00	444,70
563,00	456,40
564,00	489,17
565,00	477,47
566,00	477,47
567,00	472,79
568,00	505,56
569,00	461,09
570,00	484,49
571,00	484,49
572,00	442,36
573,00	423,64
574,00	482,15
575,00	451,72
576,00	489,17
577,00	423,64
578,00	491,51
579,00	498,53
580,00	465,77
581,00	543,00
582,00	461,09
583,00	435,34
584,00	414,27
585,00	442,36
586,00	451,72
587,00	428,32
588,00	477,47
589,00	470,45
590,00	505,56
591,00	447,04
592,00	421,30
593,00	486,83
594,00	449,38
595,00	421,30
596,00	500,87
597,00	486,83
598,00	458,74
599,00	468,11
600,00	472,79
601,00	435,34
602,00	442,36
603,00	507,90
604,00	418,96
605,00	493,85
606,00	479,81
607,00	496,19
608,00	477,47
609,00	472,79
610,00	477,47
611,00	407,25
612,00	477,47
613,00	449,38
614,00	442,36
615,00	496,19
616,00	444,70
617,00	456,40
618,00	557,05
619,00	468,11
620,00	521,94
621,00	510,24
622,00	458,74
623,00	433,00
624,00	437,68
625,00	437,68
626,00	510,24
627,00	402,57
628,00	456,40
629,00	533,64
630,00	468,11
631,00	451,72
632,00	496,19
633,00	433,00
634,00	414,27
635,00	503,22
636,00	500,87
637,00	472,79
638,00	496,19
639,00	489,17
640,00	472,79
641,00	491,51
642,00	435,34
643,00	472,79
644,00	477,47
645,00	411,93
646,00	444,70
647,00	458,74
648,00	458,74
649,00	493,85
650,00	435,34
651,00	456,40
652,00	472,79
653,00	456,40
654,00	400,23
655,00	484,49
656,00	498,53
657,00	475,13
658,00	395,55
659,00	472,79
660,00	500,87
661,00	428,32
662,00	484,49
663,00	484,49
664,00	447,04
665,00	449,38
666,00	507,90
667,00	531,30
668,00	411,93
669,00	458,74
670,00	421,30
671,00	463,43
672,00	538,32
673,00	456,40
674,00	416,62
675,00	491,51
676,00	423,64
677,00	482,15
678,00	482,15
679,00	491,51
680,00	477,47
681,00	433,00
682,00	423,64
683,00	505,56
684,00	472,79
685,00	489,17
686,00	451,72
687,00	437,68
688,00	486,83
689,00	571,09
690,00	571,09
691,00	557,05
692,00	582,79
693,00	627,26
694,00	552,37
695,00	458,74
696,00	498,53
697,00	479,81
698,00	428,32
699,00	456,40
700,00	472,79
701,00	507,90
702,00	463,43
703,00	465,77
704,00	472,79
705,00	390,87
706,00	477,47
707,00	421,30
708,00	514,92
709,00	498,53
710,00	411,93
711,00	428,32
712,00	456,40
713,00	491,51
714,00	449,38
715,00	498,53
716,00	414,27
717,00	404,91
718,00	451,72
719,00	470,45
720,00	498,53
721,00	552,37
722,00	486,83
723,00	407,25
724,00	465,77
725,00	418,96
726,00	484,49
727,00	514,92
728,00	489,17
729,00	533,64
730,00	421,30
731,00	458,74
732,00	433,00
733,00	418,96
734,00	477,47
735,00	435,34
736,00	444,70
737,00	484,49
738,00	468,11
739,00	451,72
740,00	493,85
741,00	496,19
742,00	449,38
743,00	503,22
744,00	475,13
745,00	493,85
746,00	465,77
747,00	524,28
748,00	416,62
749,00	510,24
750,00	472,79
751,00	472,79
752,00	463,43
753,00	545,34
754,00	454,06
755,00	489,17
756,00	454,06
757,00	489,17
758,00	437,68
759,00	545,34
760,00	486,83
761,00	447,04
762,00	465,77
763,00	514,92
764,00	421,30
765,00	526,62
766,00	503,22
767,00	449,38
768,00	447,04
769,00	489,17
770,00	475,13
771,00	433,00
772,00	538,32
773,00	491,51
774,00	535,98
775,00	538,32
776,00	498,53
777,00	433,00
778,00	463,43
779,00	517,26
780,00	540,66
781,00	521,94
782,00	435,34
783,00	470,45
784,00	470,45
785,00	451,72
786,00	409,59
787,00	524,28
788,00	449,38
789,00	503,22
790,00	482,15
791,00	503,22
792,00	519,60
793,00	482,15
794,00	510,24
795,00	456,40
796,00	409,59
797,00	390,87
798,00	456,40
799,00	528,96
800,00	470,45
801,00	465,77
802,00	482,15
803,00	507,90
804,00	512,58
805,00	444,70
806,00	491,51
807,00	545,34
808,00	482,15
809,00	510,24
810,00	484,49
811,00	535,98
812,00	468,11
813,00	486,83
814,00	430,66
815,00	512,58
816,00	442,36
817,00	507,90
818,00	510,24
819,00	505,56
820,00	468,11
821,00	472,79
822,00	524,28
823,00	454,06
824,00	519,60
825,00	451,72
826,00	411,93
827,00	524,28
828,00	470,45
829,00	512,58
830,00	526,62
831,00	552,37
832,00	472,79
833,00	505,56
834,00	533,64
835,00	554,71
836,00	470,45
837,00	498,53
838,00	435,34
839,00	538,32
840,00	554,71
841,00	505,56
842,00	470,45
843,00	524,28
844,00	524,28
845,00	587,47
846,00	573,43
847,00	533,64
848,00	489,17
849,00	538,32
850,00	470,45
851,00	547,69
852,00	468,11
853,00	491,51
854,00	489,17
855,00	500,87
856,00	535,98
857,00	468,11
858,00	461,09
859,00	461,09
860,00	526,62
861,00	524,28
862,00	498,53
863,00	463,43
864,00	538,32
865,00	510,24
866,00	498,53
867,00	531,30
868,00	493,85
869,00	582,79
870,00	484,49
871,00	486,83
872,00	493,85
873,00	470,45
874,00	468,11
875,00	552,37
876,00	533,64
877,00	491,51
878,00	517,26
879,00	463,43
880,00	524,28
881,00	503,22
882,00	456,40
883,00	486,83
884,00	442,36
885,00	451,72
886,00	531,30
887,00	524,28
888,00	449,38
889,00	524,28
890,00	587,47
891,00	498,53
892,00	531,30
893,00	454,06
894,00	514,92
895,00	498,53
896,00	484,49
897,00	493,85
898,00	535,98
899,00	482,15
900,00	512,58
901,00	603,86
902,00	538,32
903,00	547,69
904,00	496,19
905,00	472,79
906,00	547,69
907,00	521,94
908,00	521,94
909,00	496,19
910,00	489,17
911,00	510,24
912,00	524,28
913,00	493,85
914,00	491,51
915,00	484,49
916,00	538,32
917,00	528,96
918,00	500,87
919,00	463,43
920,00	517,26
921,00	568,75
922,00	486,83
923,00	458,74
924,00	538,32
925,00	486,83
926,00	503,22
927,00	538,32
928,00	580,45
929,00	486,83
930,00	496,19
931,00	524,28
932,00	482,15
933,00	477,47
934,00	524,28
935,00	470,45
936,00	505,56
937,00	475,13
938,00	538,32
939,00	505,56
940,00	535,98
941,00	463,43
942,00	498,53
943,00	472,79
944,00	517,26
945,00	514,92
946,00	496,19
947,00	507,90
948,00	510,24
949,00	447,04
950,00	458,74
951,00	489,17
952,00	512,58
953,00	475,13
954,00	521,94
955,00	526,62
956,00	521,94
957,00	517,26
958,00	540,66
959,00	498,53
960,00	566,41
961,00	535,98
962,00	514,92
963,00	533,64
964,00	505,56
965,00	552,37
966,00	622,58
967,00	505,56
968,00	543,00
969,00	503,22
970,00	491,51
971,00	472,79
972,00	550,03
973,00	564,07
974,00	514,92
975,00	463,43
976,00	454,06
977,00	566,41
978,00	465,77
979,00	465,77
980,00	505,56
981,00	573,43
982,00	575,77
983,00	496,19
984,00	533,64
985,00	587,47
986,00	615,56
987,00	624,92
988,00	674,07
989,00	552,37
990,00	622,58
991,00	617,90
992,00	573,43
993,00	610,88
994,00	521,94
995,00	575,77
996,00	528,96
997,00	514,92
998,00	592,16
999,00	589,82
1000,00	748,97
1001,00	823,87
1002,00	847,27
1003,00	730,25
1004,00	711,52
1005,00	645,99
1006,00	573,43
1007,00	528,96
1008,00	538,32
1009,00	554,71
1010,00	603,86
1011,00	554,71
1012,00	575,77
1013,00	566,41
1014,00	477,47
1015,00	608,54
1016,00	498,53
1017,00	493,85
1018,00	575,77
1019,00	503,22
1020,00	585,13
1021,00	458,74
1022,00	500,87
1023,00	433,00
1024,00	521,94
1025,00	554,71
1026,00	489,17
1027,00	512,58
1028,00	535,98
1029,00	514,92
1030,00	505,56
1031,00	547,69
1032,00	552,37
1033,00	526,62
1034,00	503,22
1035,00	484,49
1036,00	543,00
1037,00	601,52
1038,00	519,60
1039,00	589,82
1040,00	587,47
1041,00	531,30
1042,00	512,58
1043,00	510,24
1044,00	491,51
1045,00	561,73
1046,00	545,34
1047,00	538,32
1048,00	475,13
1049,00	599,18
1050,00	585,13
1051,00	486,83
1052,00	517,26
1053,00	545,34
1054,00	547,69
1055,00	545,34
1056,00	601,52
1057,00	603,86
1058,00	503,22
1059,00	533,64
1060,00	479,81
1061,00	543,00
1062,00	533,64
1063,00	524,28
1064,00	608,54
1065,00	545,34
1066,00	519,60
1067,00	547,69
1068,00	524,28
1069,00	535,98
1070,00	489,17
1071,00	524,28
1072,00	519,60
1073,00	512,58
1074,00	554,71
1075,00	571,09
1076,00	491,51
1077,00	538,32
1078,00	531,30
1079,00	538,32
1080,00	528,96
1081,00	484,49
1082,00	517,26
1083,00	517,26
1084,00	524,28
1085,00	528,96
1086,00	503,22
1087,00	559,39
1088,00	543,00
1089,00	580,45
1090,00	528,96
1091,00	543,00
1092,00	533,64
1093,00	540,66
1094,00	489,17
1095,00	554,71
1096,00	557,05
1097,00	641,31
1098,00	587,47
1099,00	582,79
1100,00	603,86
1101,00	655,35
1102,00	543,00
1103,00	503,22
1104,00	631,94
1105,00	517,26
1106,00	524,28
1107,00	507,90
1108,00	507,90
1109,00	575,77
1110,00	594,50
1111,00	507,90
1112,00	547,69
1113,00	526,62
1114,00	517,26
1115,00	528,96
1116,00	521,94
1117,00	517,26
1118,00	493,85
1119,00	575,77
1120,00	601,52
1121,00	528,96
1122,00	505,56
1123,00	517,26
1124,00	519,60
1125,00	519,60
1126,00	538,32
1127,00	540,66
1128,00	505,56
1129,00	535,98
1130,00	491,51
1131,00	596,84
1132,00	587,47
1133,00	538,32
1134,00	554,71
1135,00	559,39
1136,00	519,60
1137,00	596,84
1138,00	655,35
1139,00	547,69
1140,00	517,26
1141,00	507,90
1142,00	571,09
1143,00	519,60
1144,00	514,92
1145,00	540,66
1146,00	543,00
1147,00	559,39
1148,00	573,43
1149,00	545,34
1150,00	552,37
1151,00	533,64
1152,00	564,07
1153,00	503,22
1154,00	526,62
1155,00	531,30
1156,00	550,03
1157,00	510,24
1158,00	493,85
1159,00	454,06
1160,00	535,98
1161,00	507,90
1162,00	524,28
1163,00	582,79
1164,00	543,00
1165,00	540,66
1166,00	554,71
1167,00	531,30
1168,00	463,43
1169,00	521,94
1170,00	528,96
1171,00	550,03
1172,00	547,69
1173,00	461,09
1174,00	610,88
1175,00	566,41
1176,00	568,75
1177,00	528,96
1178,00	507,90
1179,00	543,00
1180,00	503,22
1181,00	575,77
1182,00	503,22
1183,00	505,56
1184,00	543,00
1185,00	535,98
1186,00	575,77
1187,00	601,52
1188,00	535,98
1189,00	608,54
1190,00	662,37
1191,00	631,94
1192,00	606,20
1193,00	582,79
1194,00	617,90
1195,00	643,65
1196,00	634,29
1197,00	568,75
1198,00	493,85
1199,00	491,51
1200,00	568,75
1201,00	543,00
1202,00	599,18
1203,00	538,32
1204,00	510,24
1205,00	512,58
1206,00	601,52
1207,00	521,94
1208,00	540,66
1209,00	559,39
1210,00	531,30
1211,00	521,94
1212,00	557,05
1213,00	547,69
1214,00	503,22
1215,00	599,18
1216,00	564,07
1217,00	486,83
1218,00	507,90
1219,00	493,85
1220,00	543,00
1221,00	486,83
1222,00	533,64
1223,00	533,64
1224,00	461,09
1225,00	484,49
1226,00	547,69
1227,00	505,56
1228,00	524,28
1229,00	571,09
1230,00	498,53
1231,00	578,11
1232,00	538,32
1233,00	557,05
1234,00	503,22
1235,00	568,75
1236,00	521,94
1237,00	458,74
1238,00	505,56
1239,00	557,05
1240,00	535,98
1241,00	559,39
1242,00	547,69
1243,00	524,28
1244,00	608,54
1245,00	554,71
1246,00	603,86
1247,00	552,37
1248,00	601,52
1249,00	624,92
1250,00	1132,82
1251,00	3911,04
1252,00	8439,97
1253,00	13860,65
1254,00	32416,42
1255,00	38195,20
1256,00	38543,94
1257,00	26295,92
1258,00	12690,38
1259,00	5905,17
1260,00	2944,39
1261,00	1577,52
1262,00	964,30
1263,00	706,84
1264,00	655,35
1265,00	667,05
1266,00	622,58
1267,00	554,71
1268,00	564,07
1269,00	521,94
1270,00	578,11
1271,00	540,66
1272,00	592,16
1273,00	496,19
1274,00	547,69
1275,00	507,90
1276,00	575,77
1277,00	528,96
1278,00	528,96
1279,00	468,11
1280,00	493,85
1281,00	547,69
1282,00	484,49
1283,00	493,85
1284,00	491,51
1285,00	468,11
1286,00	512,58
1287,00	477,47
1288,00	472,79
1289,00	465,77
1290,00	531,30
1291,00	482,15
1292,00	479,81
1293,00	543,00
1294,00	493,85
1295,00	510,24
1296,00	421,30
1297,00	566,41
1298,00	510,24
1299,00	440,02
1300,00	489,17
1301,00	468,11
1302,00	526,62
1303,00	540,66
1304,00	461,09
1305,00	531,30
1306,00	449,38
1307,00	470,45
1308,00	437,68
1309,00	486,83
1310,00	463,43
1311,00	472,79
1312,00	533,64
1313,00	461,09
1314,00	486,83
1315,00	496,19
1316,00	468,11
1317,00	538,32
1318,00	503,22
1319,00	449,38
1320,00	472,79
1321,00	470,45
1322,00	456,40
1323,00	505,56
1324,00	458,74
1325,00	486,83
1326,00	482,15
1327,00	430,66
1328,00	444,70
1329,00	433,00
1330,00	496,19
1331,00	500,87
1332,00	489,17
1333,00	496,19
1334,00	514,92
1335,00	491,51
1336,00	428,32
1337,00	479,81
1338,00	451,72
1339,00	510,24
1340,00	465,77
1341,00	456,40
1342,00	421,30
1343,00	440,02
1344,00	507,90
1345,00	491,51
1346,00	587,47
1347,00	550,03
1348,00	468,11
1349,00	451,72
1350,00	430,66
1351,00	437,68
1352,00	472,79
1353,00	479,81
1354,00	496,19
1355,00	465,77
1356,00	486,83
1357,00	475,13
1358,00	482,15
1359,00	528,96
1360,00	430,66
1361,00	482,15
1362,00	482,15
1363,00	456,40
1364,00	456,40
1365,00	505,56
1366,00	524,28
1367,00	507,90
1368,00	449,38
1369,00	454,06
1370,00	456,40
1371,00	517,26
1372,00	461,09
1373,00	386,19
1374,00	512,58
1375,00	442,36
1376,00	437,68
1377,00	484,49
1378,00	500,87
1379,00	447,04
1380,00	421,30
1381,00	493,85
1382,00	507,90
1383,00	454,06
1384,00	447,04
1385,00	440,02
1386,00	500,87
1387,00	444,70
1388,00	433,00
1389,00	444,70
1390,00	507,90
1391,00	374,49
1392,00	482,15
1393,00	491,51
1394,00	461,09
1395,00	458,74
1396,00	461,09
1397,00	447,04
1398,00	477,47
1399,00	447,04
1400,00	402,57
1401,00	411,93
1402,00	489,17
1403,00	465,77
1404,00	538,32
1405,00	475,13
1406,00	507,90
1407,00	477,47
1408,00	451,72
1409,00	437,68
1410,00	512,58
1411,00	451,72
1412,00	440,02
1413,00	486,83
1414,00	423,64
1415,00	477,47
1416,00	465,77
1417,00	409,59
1418,00	428,32
1419,00	442,36
1420,00	461,09
1421,00	507,90
1422,00	451,72
1423,00	409,59
1424,00	468,11
1425,00	489,17
1426,00	451,72
1427,00	416,62
1428,00	477,47
1429,00	442,36
1430,00	465,77
1431,00	461,09
1432,00	425,98
1433,00	461,09
1434,00	465,77
1435,00	461,09
1436,00	484,49
1437,00	472,79
1438,00	442,36
1439,00	500,87
1440,00	454,06
1441,00	463,43
1442,00	477,47
1443,00	468,11
1444,00	440,02
1445,00	484,49
1446,00	475,13
1447,00	479,81
1448,00	433,00
1449,00	477,47
1450,00	423,64
1451,00	472,79
1452,00	442,36
1453,00	444,70
1454,00	404,91
1455,00	454,06
1456,00	395,55
1457,00	428,32
1458,00	440,02
1459,00	468,11
1460,00	475,13
1461,00	447,04
1462,00	486,83
1463,00	454,06
1464,00	465,77
1465,00	458,74
1466,00	482,15
1467,00	411,93
1468,00	447,04
1469,00	475,13
1470,00	414,27
1471,00	482,15
1472,00	400,23
1473,00	543,00
1474,00	500,87
1475,00	493,85
1476,00	493,85
1477,00	519,60
1478,00	409,59
1479,00	505,56
1480,00	493,85
1481,00	477,47
1482,00	461,09
1483,00	503,22
1484,00	486,83
1485,00	521,94
1486,00	456,40
1487,00	435,34
1488,00	472,79
1489,00	500,87
1490,00	449,38
1491,00	477,47
1492,00	526,62
1493,00	447,04
1494,00	458,74
1495,00	451,72
1496,00	470,45
1497,00	517,26
1498,00	465,77
1499,00	454,06
1500,00	503,22
1501,00	528,96
1502,00	528,96
1503,00	461,09
1504,00	402,57
1505,00	470,45
1506,00	442,36
1507,00	461,09
1508,00	365,12
1509,00	456,40
1510,00	503,22
1511,00	489,17
1512,00	416,62
1513,00	435,34
1514,00	472,79
1515,00	510,24
1516,00	472,79
1517,00	423,64
1518,00	440,02
1519,00	514,92
1520,00	496,19
1521,00	433,00
1522,00	496,19
1523,00	470,45
1524,00	454,06
1525,00	484,49
1526,00	493,85
1527,00	442,36
1528,00	535,98
1529,00	484,49
1530,00	503,22
1531,00	557,05
1532,00	451,72
1533,00	498,53
1534,00	395,55
1535,00	444,70
1536,00	512,58
1537,00	479,81
1538,00	477,47
1539,00	447,04
1540,00	447,04
1541,00	423,64
1542,00	437,68
1543,00	404,91
1544,00	479,81
1545,00	421,30
1546,00	402,57
1547,00	456,40
1548,00	454,06
1549,00	456,40
1550,00	435,34
1551,00	482,15
1552,00	416,62
1553,00	465,77
1554,00	461,09
1555,00	458,74
1556,00	456,40
1557,00	440,02
1558,00	428,32
1559,00	449,38
1560,00	416,62
1561,00	472,79
1562,00	456,40
1563,00	444,70
1564,00	493,85
1565,00	428,32
1566,00	402,57
1567,00	456,40
1568,00	428,32
1569,00	456,40
1570,00	418,96
1571,00	496,19
1572,00	430,66
1573,00	409,59
1574,00	390,87
1575,00	472,79
1576,00	456,40
1577,00	425,98
1578,00	437,68
1579,00	430,66
1580,00	461,09
1581,00	442,36
1582,00	475,13
1583,00	416,62
1584,00	456,40
1585,00	477,47
1586,00	465,77
1587,00	498,53
1588,00	430,66
1589,00	442,36
1590,00	430,66
1591,00	533,64
1592,00	468,11
1593,00	477,47
1594,00	468,11
1595,00	430,66
1596,00	477,47
1597,00	468,11
1598,00	470,45
1599,00	477,47
1600,00	386,19
1601,00	418,96
1602,00	463,43
1603,00	456,40
1604,00	461,09
1605,00	496,19
1606,00	449,38
1607,00	484,49
1608,00	496,19
1609,00	521,94
1610,00	458,74
1611,00	454,06
1612,00	423,64
1613,00	442,36
1614,00	393,21
1615,00	449,38
1616,00	482,15
1617,00	486,83
1618,00	409,59
1619,00	451,72
1620,00	491,51
1621,00	456,40
1622,00	456,40
1623,00	510,24
1624,00	510,24
1625,00	458,74
1626,00	489,17
1627,00	440,02
1628,00	423,64
1629,00	374,49
1630,00	484,49
1631,00	418,96
1632,00	463,43
1633,00	423,64
1634,00	421,30
1635,00	507,90
1636,00	479,81
1637,00	512,58
1638,00	395,55
1639,00	402,57
1640,00	461,09
1641,00	465,77
1642,00	461,09
1643,00	477,47
1644,00	411,93
1645,00	449,38
1646,00	454,06
1647,00	463,43
1648,00	409,59
1649,00	468,11
1650,00	435,34
1651,00	456,40
1652,00	486,83
1653,00	425,98
1654,00	454,06
1655,00	470,45
1656,00	458,74
1657,00	514,92
1658,00	477,47
1659,00	456,40
1660,00	440,02
1661,00	458,74
1662,00	454,06
1663,00	404,91
1664,00	418,96
1665,00	493,85
1666,00	465,77
1667,00	493,85
1668,00	538,32
1669,00	468,11
1670,00	447,04
1671,00	444,70
1672,00	437,68
1673,00	421,30
1674,00	470,45
1675,00	390,87
1676,00	458,74
1677,00	451,72
1678,00	486,83
1679,00	472,79
1680,00	442,36
1681,00	472,79
1682,00	447,04
1683,00	477,47
1684,00	489,17
1685,00	433,00
1686,00	507,90
1687,00	505,56
1688,00	470,45
1689,00	451,72
1690,00	486,83
1691,00	437,68
1692,00	449,38
1693,00	395,55
1694,00	477,47
1695,00	437,68
1696,00	442,36
1697,00	477,47
1698,00	454,06
1699,00	456,40
1700,00	423,64
1701,00	468,11
1702,00	493,85
1703,00	510,24
1704,00	472,79
1705,00	451,72
1706,00	456,40
1707,00	449,38
1708,00	470,45
1709,00	514,92
1710,00	421,30
1711,00	430,66
1712,00	526,62
1713,00	468,11
1714,00	418,96
1715,00	472,79
1716,00	498,53
1717,00	568,75
1718,00	440,02
1719,00	437,68
1720,00	440,02
1721,00	472,79
1722,00	423,64
1723,00	407,25
1724,00	475,13
1725,00	418,96
1726,00	486,83
1727,00	500,87
1728,00	461,09
1729,00	507,90
1730,00	514,92
1731,00	444,70
1732,00	465,77
1733,00	418,96
1734,00	416,62
1735,00	430,66
1736,00	493,85
1737,00	411,93
1738,00	411,93
1739,00	449,38
1740,00	472,79
1741,00	496,19
1742,00	489,17
1743,00	475,13
1744,00	461,09
1745,00	479,81
1746,00	433,00
1747,00	409,59
1748,00	440,02
1749,00	468,11
1750,00	428,32
1751,00	477,47
1752,00	437,68
1753,00	449,38
1754,00	479,81
1755,00	489,17
1756,00	428,32
1757,00	444,70
1758,00	404,91
1759,00	437,68
1760,00	425,98
1761,00	470,45
1762,00	477,47
1763,00	449,38
1764,00	463,43
1765,00	470,45
1766,00	454,06
1767,00	496,19
1768,00	463,43
1769,00	486,83
1770,00	442,36
1771,00	425,98
1772,00	470,45
1773,00	472,79
1774,00	407,25
1775,00	458,74
1776,00	458,74
1777,00	437,68
1778,00	404,91
1779,00	386,19
1780,00	442,36
1781,00	449,38
1782,00	463,43
1783,00	503,22
1784,00	475,13
1785,00	444,70
1786,00	468,11
1787,00	545,34
1788,00	468,11
1789,00	484,49
1790,00	388,53
1791,00	479,81
1792,00	463,43
1793,00	493,85
1794,00	505,56
1795,00	498,53
1796,00	500,87
1797,00	472,79
1798,00	374,49
1799,00	416,62
1800,00	411,93
1801,00	461,09
1802,00	465,77
1803,00	461,09
1804,00	411,93
1805,00	486,83
1806,00	444,70
1807,00	477,47
1808,00	498,53
1809,00	510,24
1810,00	451,72
1811,00	489,17
1812,00	418,96
1813,00	437,68
1814,00	440,02
1815,00	533,64
1816,00	461,09
1817,00	454,06
1818,00	454,06
1819,00	472,79
1820,00	447,04
1821,00	430,66
1822,00	496,19
1823,00	463,43
1824,00	465,77
1825,00	440,02
1826,00	430,66
1827,00	411,93
1828,00	444,70
1829,00	463,43
1830,00	482,15
1831,00	421,30
1832,00	465,77
1833,00	437,68
1834,00	470,45
1835,00	493,85
1836,00	477,47
1837,00	461,09
1838,00	428,32
1839,00	416,62
1840,00	428,32
1841,00	407,25
1842,00	444,70
1843,00	482,15
1844,00	447,04
1845,00	484,49
1846,00	463,43
1847,00	554,71
1848,00	503,22
1849,00	465,77
1850,00	440,02
1851,00	479,81
1852,00	458,74
1853,00	435,34
1854,00	475,13
1855,00	498,53
1856,00	379,17
1857,00	442,36
1858,00	454,06
1859,00	447,04
1860,00	430,66
1861,00	472,79
1862,00	428,32
1863,00	503,22
1864,00	468,11
1865,00	433,00
1866,00	425,98
1867,00	472,79
1868,00	482,15
1869,00	437,68
1870,00	404,91
1871,00	491,51
1872,00	498,53
1873,00	465,77
1874,00	414,27
1875,00	440,02
1876,00	442,36
1877,00	468,11
1878,00	496,19
1879,00	454,06
1880,00	416,62
1881,00	423,64
1882,00	447,04
1883,00	510,24
1884,00	442,36
1885,00	531,30
1886,00	456,40
1887,00	454,06
1888,00	428,32
1889,00	477,47
1890,00	500,87
1891,00	468,11
1892,00	447,04
1893,00	510,24
1894,00	451,72
1895,00	454,06
1896,00	456,40
1897,00	482,15
1898,00	440,02
1899,00	456,40
1900,00	451,72
1901,00	470,45
1902,00	435,34
1903,00	425,98
1904,00	477,47
1905,00	482,15
1906,00	442,36
1907,00	535,98
1908,00	451,72
1909,00	433,00
1910,00	435,34
1911,00	489,17
1912,00	416,62
1913,00	402,57
1914,00	461,09
1915,00	505,56
1916,00	456,40
1917,00	440,02
1918,00	484,49
1919,00	472,79
1920,00	479,81
1921,00	491,51
1922,00	505,56
1923,00	484,49
1924,00	430,66
1925,00	418,96
1926,00	447,04
1927,00	475,13
1928,00	519,60
1929,00	470,45
1930,00	498,53
1931,00	423,64
1932,00	475,13
1933,00	458,74
1934,00	458,74
1935,00	437,68
1936,00	454,06
1937,00	458,74
1938,00	477,47
1939,00	456,40
1940,00	442,36
1941,00	475,13
1942,00	433,00
1943,00	390,87
1944,00	395,55
1945,00	435,34
1946,00	519,60
1947,00	540,66
1948,00	510,24
1949,00	484,49
1950,00	498,53
1951,00	454,06
1952,00	468,11
1953,00	468,11
1954,00	470,45
1955,00	437,68
1956,00	475,13
1957,00	479,81
1958,00	503,22
1959,00	477,47
1960,00	458,74
1961,00	435,34
1962,00	456,40
1963,00	437,68
1964,00	428,32
1965,00	468,11
1966,00	514,92
1967,00	440,02
1968,00	503,22
1969,00	423,64
1970,00	430,66
1971,00	472,79
1972,00	397,89
1973,00	456,40
1974,00	482,15
1975,00	477,47
1976,00	421,30
1977,00	465,77
1978,00	421,30
1979,00	482,15
1980,00	447,04
1981,00	433,00
1982,00	489,17
1983,00	421,30
1984,00	402,57
1985,00	500,87
1986,00	496,19
1987,00	512,58
1988,00	430,66
1989,00	433,00
1990,00	404,91
1991,00	433,00
1992,00	447,04
1993,00	472,79
1994,00	477,47
1995,00	486,83
1996,00	449,38
1997,00	493,85
1998,00	440,02
1999,00	468,11
2000,00	437,68
2001,00	423,64
2002,00	400,23
2003,00	447,04
2004,00	404,91
2005,00	524,28
2006,00	479,81
2007,00	472,79
2008,00	409,59
2009,00	379,17
2010,00	498,53
2011,00	479,81
2012,00	442,36
2013,00	519,60
2014,00	437,68
2015,00	484,49
2016,00	407,25
2017,00	447,04
2018,00	568,75
2019,00	444,70
2020,00	470,45
2021,00	482,15
2022,00	421,30
2023,00	514,92
2024,00	451,72
2025,00	444,70
2026,00	423,64
2027,00	416,62
2028,00	388,53
2029,00	454,06
2030,00	477,47
2031,00	388,53
2032,00	468,11
2033,00	479,81
2034,00	482,15
2035,00	418,96
2036,00	425,98
2037,00	503,22
2038,00	447,04
2039,00	449,38
2040,00	416,62
2041,00	416,62
2042,00	454,06
2043,00	470,45
2044,00	489,17
2045,00	465,77
2046,00	447,04
2047,00	468,11
>>>>>End Processed Spectral Data<<<<<
