SpectraSuite Data File
++++++++++++++++++++++++++++++++++++
Date: Thu May 04 17:51:21 BRT 2017
User: aluno
Dark Spectrum Present: No
Reference Spectrum Present: No
Number of Sampled Component Spectra: 1
Spectrometers: USB2+H08582
Integration Time (usec): 100000 (USB2+H08582)
Spectra Averaged: 1 (USB2+H08582)
Boxcar Smoothing: 0 (USB2+H08582)
Correct for Electrical Dark: No (USB2+H08582)
Strobe/Lamp Enabled: No (USB2+H08582)
Correct for Detector Non-linearity: No (USB2+H08582)
Correct for Stray Light: No (USB2+H08582)
Number of Pixels in Processed Spectrum: 2048
>>>>>Begin Processed Spectral Data<<<<<
0,00	425,98
1,00	425,98
2,00	425,98
3,00	360,44
4,00	285,55
5,00	344,06
6,00	308,95
7,00	315,97
8,00	332,36
9,00	271,50
10,00	292,57
11,00	287,89
12,00	299,59
13,00	355,76
14,00	365,12
15,00	322,99
16,00	339,38
17,00	325,33
18,00	355,76
19,00	318,31
20,00	320,65
21,00	358,10
22,00	404,91
23,00	435,34
24,00	423,64
25,00	433,00
26,00	461,09
27,00	411,93
28,00	409,59
29,00	491,51
30,00	418,96
31,00	470,45
32,00	514,92
33,00	465,77
34,00	461,09
35,00	437,68
36,00	498,53
37,00	493,85
38,00	451,72
39,00	521,94
40,00	428,32
41,00	454,06
42,00	472,79
43,00	470,45
44,00	493,85
45,00	447,04
46,00	505,56
47,00	493,85
48,00	456,40
49,00	503,22
50,00	454,06
51,00	458,74
52,00	479,81
53,00	493,85
54,00	428,32
55,00	493,85
56,00	454,06
57,00	538,32
58,00	528,96
59,00	491,51
60,00	514,92
61,00	528,96
62,00	472,79
63,00	543,00
64,00	470,45
65,00	489,17
66,00	430,66
67,00	465,77
68,00	468,11
69,00	564,07
70,00	526,62
71,00	479,81
72,00	535,98
73,00	454,06
74,00	463,43
75,00	465,77
76,00	540,66
77,00	433,00
78,00	486,83
79,00	444,70
80,00	512,58
81,00	491,51
82,00	498,53
83,00	472,79
84,00	379,17
85,00	465,77
86,00	524,28
87,00	458,74
88,00	456,40
89,00	543,00
90,00	500,87
91,00	456,40
92,00	470,45
93,00	486,83
94,00	465,77
95,00	442,36
96,00	404,91
97,00	503,22
98,00	461,09
99,00	482,15
100,00	500,87
101,00	465,77
102,00	486,83
103,00	519,60
104,00	517,26
105,00	461,09
106,00	421,30
107,00	479,81
108,00	493,85
109,00	454,06
110,00	498,53
111,00	491,51
112,00	437,68
113,00	449,38
114,00	437,68
115,00	535,98
116,00	447,04
117,00	528,96
118,00	505,56
119,00	500,87
120,00	449,38
121,00	486,83
122,00	463,43
123,00	440,02
124,00	524,28
125,00	458,74
126,00	472,79
127,00	454,06
128,00	442,36
129,00	517,26
130,00	468,11
131,00	461,09
132,00	500,87
133,00	449,38
134,00	433,00
135,00	442,36
136,00	449,38
137,00	470,45
138,00	571,09
139,00	498,53
140,00	468,11
141,00	477,47
142,00	463,43
143,00	465,77
144,00	475,13
145,00	449,38
146,00	451,72
147,00	531,30
148,00	514,92
149,00	425,98
150,00	468,11
151,00	449,38
152,00	482,15
153,00	531,30
154,00	484,49
155,00	468,11
156,00	479,81
157,00	505,56
158,00	594,50
159,00	435,34
160,00	498,53
161,00	540,66
162,00	524,28
163,00	454,06
164,00	512,58
165,00	444,70
166,00	440,02
167,00	505,56
168,00	444,70
169,00	528,96
170,00	510,24
171,00	456,40
172,00	526,62
173,00	461,09
174,00	484,49
175,00	510,24
176,00	505,56
177,00	465,77
178,00	491,51
179,00	493,85
180,00	447,04
181,00	479,81
182,00	482,15
183,00	477,47
184,00	538,32
185,00	449,38
186,00	444,70
187,00	512,58
188,00	470,45
189,00	479,81
190,00	517,26
191,00	489,17
192,00	465,77
193,00	416,62
194,00	524,28
195,00	521,94
196,00	500,87
197,00	503,22
198,00	482,15
199,00	512,58
200,00	475,13
201,00	477,47
202,00	486,83
203,00	545,34
204,00	510,24
205,00	463,43
206,00	409,59
207,00	498,53
208,00	493,85
209,00	477,47
210,00	505,56
211,00	451,72
212,00	489,17
213,00	512,58
214,00	444,70
215,00	514,92
216,00	477,47
217,00	500,87
218,00	531,30
219,00	512,58
220,00	543,00
221,00	479,81
222,00	486,83
223,00	479,81
224,00	470,45
225,00	519,60
226,00	482,15
227,00	493,85
228,00	500,87
229,00	545,34
230,00	482,15
231,00	425,98
232,00	482,15
233,00	489,17
234,00	540,66
235,00	514,92
236,00	512,58
237,00	512,58
238,00	489,17
239,00	493,85
240,00	468,11
241,00	486,83
242,00	510,24
243,00	517,26
244,00	554,71
245,00	521,94
246,00	470,45
247,00	533,64
248,00	514,92
249,00	475,13
250,00	543,00
251,00	507,90
252,00	524,28
253,00	503,22
254,00	524,28
255,00	489,17
256,00	538,32
257,00	503,22
258,00	547,69
259,00	458,74
260,00	447,04
261,00	482,15
262,00	470,45
263,00	479,81
264,00	484,49
265,00	507,90
266,00	468,11
267,00	449,38
268,00	470,45
269,00	507,90
270,00	475,13
271,00	496,19
272,00	470,45
273,00	456,40
274,00	482,15
275,00	512,58
276,00	503,22
277,00	451,72
278,00	486,83
279,00	472,79
280,00	535,98
281,00	500,87
282,00	514,92
283,00	493,85
284,00	470,45
285,00	521,94
286,00	477,47
287,00	440,02
288,00	547,69
289,00	517,26
290,00	491,51
291,00	540,66
292,00	517,26
293,00	479,81
294,00	526,62
295,00	465,77
296,00	550,03
297,00	526,62
298,00	524,28
299,00	496,19
300,00	554,71
301,00	512,58
302,00	449,38
303,00	496,19
304,00	449,38
305,00	465,77
306,00	559,39
307,00	468,11
308,00	486,83
309,00	475,13
310,00	484,49
311,00	507,90
312,00	557,05
313,00	493,85
314,00	517,26
315,00	540,66
316,00	498,53
317,00	519,60
318,00	468,11
319,00	505,56
320,00	456,40
321,00	589,82
322,00	500,87
323,00	519,60
324,00	472,79
325,00	528,96
326,00	503,22
327,00	468,11
328,00	543,00
329,00	498,53
330,00	521,94
331,00	475,13
332,00	486,83
333,00	517,26
334,00	482,15
335,00	503,22
336,00	554,71
337,00	533,64
338,00	454,06
339,00	507,90
340,00	500,87
341,00	550,03
342,00	503,22
343,00	521,94
344,00	552,37
345,00	486,83
346,00	510,24
347,00	538,32
348,00	500,87
349,00	573,43
350,00	512,58
351,00	519,60
352,00	519,60
353,00	472,79
354,00	496,19
355,00	561,73
356,00	543,00
357,00	505,56
358,00	514,92
359,00	498,53
360,00	507,90
361,00	449,38
362,00	514,92
363,00	489,17
364,00	531,30
365,00	528,96
366,00	528,96
367,00	435,34
368,00	526,62
369,00	533,64
370,00	512,58
371,00	557,05
372,00	517,26
373,00	517,26
374,00	486,83
375,00	507,90
376,00	468,11
377,00	505,56
378,00	582,79
379,00	528,96
380,00	505,56
381,00	472,79
382,00	489,17
383,00	519,60
384,00	477,47
385,00	489,17
386,00	463,43
387,00	510,24
388,00	571,09
389,00	510,24
390,00	526,62
391,00	454,06
392,00	486,83
393,00	519,60
394,00	566,41
395,00	521,94
396,00	547,69
397,00	479,81
398,00	498,53
399,00	500,87
400,00	514,92
401,00	470,45
402,00	498,53
403,00	463,43
404,00	538,32
405,00	547,69
406,00	512,58
407,00	493,85
408,00	514,92
409,00	486,83
410,00	442,36
411,00	491,51
412,00	526,62
413,00	447,04
414,00	571,09
415,00	547,69
416,00	571,09
417,00	528,96
418,00	526,62
419,00	524,28
420,00	524,28
421,00	526,62
422,00	484,49
423,00	503,22
424,00	517,26
425,00	472,79
426,00	510,24
427,00	514,92
428,00	538,32
429,00	486,83
430,00	505,56
431,00	461,09
432,00	500,87
433,00	545,34
434,00	561,73
435,00	552,37
436,00	507,90
437,00	526,62
438,00	528,96
439,00	496,19
440,00	505,56
441,00	514,92
442,00	557,05
443,00	458,74
444,00	531,30
445,00	573,43
446,00	585,13
447,00	545,34
448,00	491,51
449,00	503,22
450,00	545,34
451,00	533,64
452,00	538,32
453,00	510,24
454,00	540,66
455,00	484,49
456,00	594,50
457,00	554,71
458,00	594,50
459,00	568,75
460,00	550,03
461,00	491,51
462,00	463,43
463,00	498,53
464,00	538,32
465,00	479,81
466,00	575,77
467,00	547,69
468,00	519,60
469,00	517,26
470,00	526,62
471,00	554,71
472,00	517,26
473,00	568,75
474,00	573,43
475,00	510,24
476,00	531,30
477,00	521,94
478,00	540,66
479,00	500,87
480,00	636,63
481,00	543,00
482,00	564,07
483,00	528,96
484,00	486,83
485,00	571,09
486,00	519,60
487,00	477,47
488,00	514,92
489,00	610,88
490,00	561,73
491,00	582,79
492,00	582,79
493,00	568,75
494,00	545,34
495,00	482,15
496,00	517,26
497,00	543,00
498,00	568,75
499,00	582,79
500,00	533,64
501,00	496,19
502,00	496,19
503,00	566,41
504,00	550,03
505,00	531,30
506,00	538,32
507,00	540,66
508,00	514,92
509,00	629,60
510,00	613,22
511,00	561,73
512,00	559,39
513,00	538,32
514,00	606,20
515,00	575,77
516,00	580,45
517,00	538,32
518,00	547,69
519,00	606,20
520,00	629,60
521,00	561,73
522,00	610,88
523,00	610,88
524,00	601,52
525,00	629,60
526,00	655,35
527,00	636,63
528,00	629,60
529,00	695,14
530,00	671,73
531,00	720,88
532,00	664,71
533,00	739,61
534,00	681,10
535,00	683,44
536,00	706,84
537,00	734,93
538,00	734,93
539,00	823,87
540,00	828,55
541,00	887,06
542,00	873,02
543,00	896,43
544,00	858,98
545,00	910,47
546,00	952,60
547,00	954,94
548,00	1032,18
549,00	1057,92
550,00	1043,88
551,00	1165,59
552,00	1280,27
553,00	1317,72
554,00	1345,81
555,00	1376,24
556,00	1479,22
557,00	1565,82
558,00	1682,85
559,00	1755,40
560,00	1933,28
561,00	1921,58
562,00	2125,21
563,00	2237,55
564,00	2218,83
565,00	2441,18
566,00	2574,59
567,00	2864,82
568,00	2885,88
569,00	3047,38
570,00	3129,30
571,00	3520,17
572,00	3658,26
573,00	3889,97
574,00	4114,66
575,00	4475,10
576,00	4594,47
577,00	4755,97
578,00	4959,60
579,00	5373,87
580,00	5804,53
581,00	6076,03
582,00	6541,80
583,00	6984,16
584,00	7426,52
585,00	7808,03
586,00	8301,88
587,00	9046,17
588,00	9530,66
589,00	9980,04
590,00	10513,69
591,00	11325,85
592,00	12217,60
593,00	12842,52
594,00	13907,46
595,00	14574,52
596,00	15672,23
597,00	16496,10
598,00	17654,66
599,00	18504,28
600,00	19550,49
601,00	20297,13
602,00	21792,73
603,00	22647,02
604,00	23630,05
605,00	24357,96
606,00	26352,09
607,00	27136,17
608,00	28166,01
609,00	28826,04
610,00	29535,22
611,00	30995,71
612,00	31477,86
613,00	31955,33
614,00	32809,63
615,00	33039,00
616,00	33017,94
617,00	33446,26
618,00	33090,49
619,00	33420,51
620,00	32708,99
621,00	32304,07
622,00	32055,98
623,00	30890,39
624,00	30668,04
625,00	29191,16
626,00	28259,63
627,00	27988,13
628,00	26539,33
629,00	24870,53
630,00	23709,63
631,00	22183,60
632,00	21603,14
633,00	20058,39
634,00	19073,03
635,00	17575,08
636,00	16872,92
637,00	15714,36
638,00	14750,06
639,00	13944,91
640,00	13673,41
641,00	12601,44
642,00	11765,87
643,00	11225,21
644,00	10677,52
645,00	10061,96
646,00	9511,94
647,00	9064,89
648,00	8681,05
649,00	8603,81
650,00	8131,02
651,00	7730,79
652,00	7314,17
653,00	7164,38
654,00	6970,12
655,00	6396,68
656,00	6218,80
657,00	5900,49
658,00	5624,31
659,00	5509,62
660,00	5125,77
661,00	4662,35
662,00	4704,48
663,00	4484,47
664,00	4231,69
665,00	4004,66
666,00	3908,69
667,00	3609,11
668,00	3602,08
669,00	3421,86
670,00	3307,18
671,00	3187,81
672,00	3075,46
673,00	2815,66
674,00	2846,09
675,00	2637,78
676,00	2558,21
677,00	2410,75
678,00	2356,92
679,00	2349,90
680,00	2209,47
681,00	2015,20
682,00	1935,62
683,00	1973,07
684,00	1942,64
685,00	1858,39
686,00	1729,66
687,00	1804,55
688,00	1607,95
689,00	1703,91
690,00	1694,55
691,00	1593,90
692,00	1526,03
693,00	1542,41
694,00	1488,58
695,00	1364,53
696,00	1409,00
697,00	1359,85
698,00	1310,70
699,00	1160,91
700,00	1203,04
701,00	1207,72
702,00	1184,31
703,00	1186,65
704,00	1146,86
705,00	976,00
706,00	1088,35
707,00	1043,88
708,00	1020,47
709,00	959,62
710,00	957,28
711,00	992,39
712,00	905,79
713,00	861,32
714,00	901,11
715,00	786,42
716,00	777,06
717,00	908,13
718,00	835,57
719,00	767,70
720,00	779,40
721,00	826,21
722,00	727,91
723,00	746,63
724,00	681,10
725,00	774,72
726,00	741,95
727,00	753,65
728,00	739,61
729,00	645,99
730,00	669,39
731,00	674,07
732,00	692,80
733,00	615,56
734,00	617,90
735,00	657,69
736,00	681,10
737,00	713,86
738,00	688,12
739,00	645,99
740,00	667,05
741,00	573,43
742,00	657,69
743,00	662,37
744,00	622,58
745,00	596,84
746,00	662,37
747,00	571,09
748,00	617,90
749,00	631,94
750,00	589,82
751,00	580,45
752,00	599,18
753,00	571,09
754,00	564,07
755,00	538,32
756,00	587,47
757,00	575,77
758,00	613,22
759,00	589,82
760,00	547,69
761,00	561,73
762,00	550,03
763,00	526,62
764,00	545,34
765,00	531,30
766,00	578,11
767,00	629,60
768,00	589,82
769,00	547,69
770,00	568,75
771,00	634,29
772,00	580,45
773,00	589,82
774,00	573,43
775,00	521,94
776,00	482,15
777,00	575,77
778,00	571,09
779,00	557,05
780,00	573,43
781,00	557,05
782,00	559,39
783,00	486,83
784,00	500,87
785,00	524,28
786,00	533,64
787,00	568,75
788,00	564,07
789,00	557,05
790,00	533,64
791,00	543,00
792,00	528,96
793,00	526,62
794,00	550,03
795,00	519,60
796,00	517,26
797,00	517,26
798,00	517,26
799,00	580,45
800,00	566,41
801,00	540,66
802,00	507,90
803,00	573,43
804,00	545,34
805,00	547,69
806,00	561,73
807,00	559,39
808,00	538,32
809,00	547,69
810,00	585,13
811,00	571,09
812,00	521,94
813,00	557,05
814,00	500,87
815,00	526,62
816,00	566,41
817,00	550,03
818,00	512,58
819,00	596,84
820,00	543,00
821,00	514,92
822,00	543,00
823,00	526,62
824,00	575,77
825,00	447,04
826,00	484,49
827,00	615,56
828,00	573,43
829,00	524,28
830,00	564,07
831,00	505,56
832,00	571,09
833,00	503,22
834,00	484,49
835,00	475,13
836,00	512,58
837,00	521,94
838,00	573,43
839,00	526,62
840,00	552,37
841,00	608,54
842,00	535,98
843,00	512,58
844,00	545,34
845,00	500,87
846,00	521,94
847,00	528,96
848,00	465,77
849,00	479,81
850,00	535,98
851,00	486,83
852,00	559,39
853,00	601,52
854,00	561,73
855,00	475,13
856,00	528,96
857,00	538,32
858,00	493,85
859,00	533,64
860,00	564,07
861,00	503,22
862,00	521,94
863,00	552,37
864,00	531,30
865,00	524,28
866,00	482,15
867,00	554,71
868,00	521,94
869,00	587,47
870,00	620,24
871,00	582,79
872,00	458,74
873,00	589,82
874,00	500,87
875,00	512,58
876,00	528,96
877,00	528,96
878,00	512,58
879,00	587,47
880,00	519,60
881,00	524,28
882,00	533,64
883,00	578,11
884,00	554,71
885,00	514,92
886,00	571,09
887,00	568,75
888,00	514,92
889,00	468,11
890,00	505,56
891,00	512,58
892,00	610,88
893,00	573,43
894,00	521,94
895,00	507,90
896,00	503,22
897,00	493,85
898,00	564,07
899,00	538,32
900,00	531,30
901,00	540,66
902,00	514,92
903,00	521,94
904,00	538,32
905,00	533,64
906,00	550,03
907,00	601,52
908,00	543,00
909,00	535,98
910,00	477,47
911,00	561,73
912,00	468,11
913,00	472,79
914,00	444,70
915,00	524,28
916,00	531,30
917,00	528,96
918,00	503,22
919,00	545,34
920,00	491,51
921,00	484,49
922,00	500,87
923,00	496,19
924,00	547,69
925,00	571,09
926,00	512,58
927,00	475,13
928,00	498,53
929,00	510,24
930,00	550,03
931,00	578,11
932,00	510,24
933,00	475,13
934,00	468,11
935,00	498,53
936,00	514,92
937,00	519,60
938,00	482,15
939,00	521,94
940,00	484,49
941,00	535,98
942,00	557,05
943,00	472,79
944,00	510,24
945,00	491,51
946,00	456,40
947,00	571,09
948,00	533,64
949,00	531,30
950,00	524,28
951,00	479,81
952,00	559,39
953,00	526,62
954,00	543,00
955,00	521,94
956,00	531,30
957,00	543,00
958,00	573,43
959,00	498,53
960,00	451,72
961,00	503,22
962,00	491,51
963,00	510,24
964,00	517,26
965,00	521,94
966,00	660,03
967,00	526,62
968,00	477,47
969,00	550,03
970,00	526,62
971,00	489,17
972,00	484,49
973,00	521,94
974,00	559,39
975,00	547,69
976,00	566,41
977,00	543,00
978,00	505,56
979,00	521,94
980,00	571,09
981,00	533,64
982,00	554,71
983,00	538,32
984,00	524,28
985,00	528,96
986,00	550,03
987,00	514,92
988,00	472,79
989,00	627,26
990,00	535,98
991,00	613,22
992,00	547,69
993,00	543,00
994,00	554,71
995,00	550,03
996,00	543,00
997,00	528,96
998,00	514,92
999,00	582,79
1000,00	571,09
1001,00	547,69
1002,00	653,01
1003,00	561,73
1004,00	622,58
1005,00	535,98
1006,00	524,28
1007,00	538,32
1008,00	493,85
1009,00	582,79
1010,00	545,34
1011,00	547,69
1012,00	594,50
1013,00	552,37
1014,00	568,75
1015,00	545,34
1016,00	561,73
1017,00	503,22
1018,00	543,00
1019,00	514,92
1020,00	561,73
1021,00	594,50
1022,00	545,34
1023,00	629,60
1024,00	496,19
1025,00	554,71
1026,00	477,47
1027,00	493,85
1028,00	540,66
1029,00	514,92
1030,00	538,32
1031,00	500,87
1032,00	505,56
1033,00	496,19
1034,00	528,96
1035,00	512,58
1036,00	550,03
1037,00	533,64
1038,00	489,17
1039,00	524,28
1040,00	489,17
1041,00	521,94
1042,00	531,30
1043,00	475,13
1044,00	557,05
1045,00	465,77
1046,00	500,87
1047,00	559,39
1048,00	547,69
1049,00	493,85
1050,00	514,92
1051,00	472,79
1052,00	465,77
1053,00	531,30
1054,00	505,56
1055,00	479,81
1056,00	510,24
1057,00	484,49
1058,00	547,69
1059,00	507,90
1060,00	507,90
1061,00	482,15
1062,00	514,92
1063,00	519,60
1064,00	491,51
1065,00	526,62
1066,00	482,15
1067,00	543,00
1068,00	505,56
1069,00	550,03
1070,00	486,83
1071,00	535,98
1072,00	517,26
1073,00	552,37
1074,00	503,22
1075,00	517,26
1076,00	514,92
1077,00	578,11
1078,00	498,53
1079,00	500,87
1080,00	503,22
1081,00	472,79
1082,00	465,77
1083,00	540,66
1084,00	484,49
1085,00	503,22
1086,00	510,24
1087,00	493,85
1088,00	514,92
1089,00	461,09
1090,00	575,77
1091,00	543,00
1092,00	514,92
1093,00	538,32
1094,00	538,32
1095,00	479,81
1096,00	545,34
1097,00	528,96
1098,00	493,85
1099,00	543,00
1100,00	484,49
1101,00	517,26
1102,00	568,75
1103,00	580,45
1104,00	561,73
1105,00	531,30
1106,00	510,24
1107,00	482,15
1108,00	493,85
1109,00	531,30
1110,00	528,96
1111,00	475,13
1112,00	596,84
1113,00	514,92
1114,00	617,90
1115,00	512,58
1116,00	486,83
1117,00	500,87
1118,00	468,11
1119,00	468,11
1120,00	547,69
1121,00	540,66
1122,00	493,85
1123,00	463,43
1124,00	554,71
1125,00	489,17
1126,00	552,37
1127,00	561,73
1128,00	561,73
1129,00	554,71
1130,00	496,19
1131,00	547,69
1132,00	535,98
1133,00	510,24
1134,00	521,94
1135,00	498,53
1136,00	472,79
1137,00	547,69
1138,00	540,66
1139,00	514,92
1140,00	528,96
1141,00	482,15
1142,00	559,39
1143,00	484,49
1144,00	510,24
1145,00	559,39
1146,00	491,51
1147,00	512,58
1148,00	519,60
1149,00	561,73
1150,00	505,56
1151,00	496,19
1152,00	538,32
1153,00	524,28
1154,00	521,94
1155,00	526,62
1156,00	559,39
1157,00	564,07
1158,00	486,83
1159,00	566,41
1160,00	461,09
1161,00	564,07
1162,00	475,13
1163,00	524,28
1164,00	505,56
1165,00	503,22
1166,00	564,07
1167,00	561,73
1168,00	538,32
1169,00	545,34
1170,00	517,26
1171,00	482,15
1172,00	477,47
1173,00	496,19
1174,00	486,83
1175,00	507,90
1176,00	566,41
1177,00	587,47
1178,00	538,32
1179,00	533,64
1180,00	510,24
1181,00	533,64
1182,00	475,13
1183,00	512,58
1184,00	461,09
1185,00	564,07
1186,00	468,11
1187,00	554,71
1188,00	526,62
1189,00	568,75
1190,00	531,30
1191,00	557,05
1192,00	580,45
1193,00	540,66
1194,00	468,11
1195,00	552,37
1196,00	550,03
1197,00	493,85
1198,00	493,85
1199,00	493,85
1200,00	498,53
1201,00	552,37
1202,00	512,58
1203,00	505,56
1204,00	500,87
1205,00	479,81
1206,00	498,53
1207,00	507,90
1208,00	477,47
1209,00	545,34
1210,00	521,94
1211,00	561,73
1212,00	447,04
1213,00	510,24
1214,00	512,58
1215,00	503,22
1216,00	533,64
1217,00	540,66
1218,00	521,94
1219,00	503,22
1220,00	533,64
1221,00	521,94
1222,00	575,77
1223,00	479,81
1224,00	477,47
1225,00	514,92
1226,00	449,38
1227,00	540,66
1228,00	571,09
1229,00	526,62
1230,00	585,13
1231,00	519,60
1232,00	489,17
1233,00	479,81
1234,00	519,60
1235,00	575,77
1236,00	444,70
1237,00	540,66
1238,00	528,96
1239,00	578,11
1240,00	472,79
1241,00	519,60
1242,00	533,64
1243,00	510,24
1244,00	503,22
1245,00	498,53
1246,00	498,53
1247,00	519,60
1248,00	496,19
1249,00	465,77
1250,00	458,74
1251,00	491,51
1252,00	503,22
1253,00	491,51
1254,00	531,30
1255,00	468,11
1256,00	507,90
1257,00	470,45
1258,00	507,90
1259,00	496,19
1260,00	500,87
1261,00	503,22
1262,00	505,56
1263,00	493,85
1264,00	557,05
1265,00	498,53
1266,00	505,56
1267,00	514,92
1268,00	505,56
1269,00	521,94
1270,00	566,41
1271,00	552,37
1272,00	517,26
1273,00	514,92
1274,00	505,56
1275,00	468,11
1276,00	461,09
1277,00	489,17
1278,00	463,43
1279,00	442,36
1280,00	554,71
1281,00	498,53
1282,00	514,92
1283,00	533,64
1284,00	514,92
1285,00	498,53
1286,00	449,38
1287,00	449,38
1288,00	524,28
1289,00	449,38
1290,00	465,77
1291,00	475,13
1292,00	517,26
1293,00	489,17
1294,00	493,85
1295,00	547,69
1296,00	498,53
1297,00	512,58
1298,00	477,47
1299,00	472,79
1300,00	524,28
1301,00	472,79
1302,00	498,53
1303,00	505,56
1304,00	500,87
1305,00	517,26
1306,00	435,34
1307,00	409,59
1308,00	521,94
1309,00	554,71
1310,00	517,26
1311,00	463,43
1312,00	475,13
1313,00	465,77
1314,00	519,60
1315,00	535,98
1316,00	507,90
1317,00	477,47
1318,00	573,43
1319,00	503,22
1320,00	524,28
1321,00	479,81
1322,00	496,19
1323,00	442,36
1324,00	484,49
1325,00	557,05
1326,00	514,92
1327,00	479,81
1328,00	472,79
1329,00	505,56
1330,00	500,87
1331,00	496,19
1332,00	496,19
1333,00	526,62
1334,00	533,64
1335,00	587,47
1336,00	545,34
1337,00	500,87
1338,00	505,56
1339,00	543,00
1340,00	463,43
1341,00	475,13
1342,00	519,60
1343,00	456,40
1344,00	486,83
1345,00	550,03
1346,00	479,81
1347,00	479,81
1348,00	540,66
1349,00	482,15
1350,00	465,77
1351,00	484,49
1352,00	510,24
1353,00	491,51
1354,00	444,70
1355,00	463,43
1356,00	514,92
1357,00	435,34
1358,00	496,19
1359,00	489,17
1360,00	500,87
1361,00	498,53
1362,00	484,49
1363,00	512,58
1364,00	458,74
1365,00	461,09
1366,00	491,51
1367,00	456,40
1368,00	484,49
1369,00	517,26
1370,00	451,72
1371,00	491,51
1372,00	512,58
1373,00	456,40
1374,00	477,47
1375,00	507,90
1376,00	496,19
1377,00	428,32
1378,00	526,62
1379,00	519,60
1380,00	470,45
1381,00	463,43
1382,00	512,58
1383,00	472,79
1384,00	465,77
1385,00	484,49
1386,00	486,83
1387,00	449,38
1388,00	547,69
1389,00	498,53
1390,00	475,13
1391,00	428,32
1392,00	533,64
1393,00	449,38
1394,00	500,87
1395,00	454,06
1396,00	416,62
1397,00	468,11
1398,00	519,60
1399,00	470,45
1400,00	521,94
1401,00	557,05
1402,00	433,00
1403,00	456,40
1404,00	425,98
1405,00	519,60
1406,00	486,83
1407,00	458,74
1408,00	461,09
1409,00	456,40
1410,00	528,96
1411,00	505,56
1412,00	442,36
1413,00	528,96
1414,00	477,47
1415,00	524,28
1416,00	425,98
1417,00	442,36
1418,00	428,32
1419,00	533,64
1420,00	489,17
1421,00	482,15
1422,00	442,36
1423,00	503,22
1424,00	484,49
1425,00	493,85
1426,00	456,40
1427,00	428,32
1428,00	540,66
1429,00	538,32
1430,00	505,56
1431,00	451,72
1432,00	472,79
1433,00	503,22
1434,00	472,79
1435,00	468,11
1436,00	477,47
1437,00	503,22
1438,00	484,49
1439,00	475,13
1440,00	482,15
1441,00	512,58
1442,00	425,98
1443,00	519,60
1444,00	489,17
1445,00	500,87
1446,00	517,26
1447,00	486,83
1448,00	444,70
1449,00	505,56
1450,00	463,43
1451,00	430,66
1452,00	461,09
1453,00	404,91
1454,00	458,74
1455,00	463,43
1456,00	491,51
1457,00	526,62
1458,00	440,02
1459,00	540,66
1460,00	475,13
1461,00	456,40
1462,00	484,49
1463,00	475,13
1464,00	512,58
1465,00	477,47
1466,00	423,64
1467,00	505,56
1468,00	496,19
1469,00	409,59
1470,00	447,04
1471,00	465,77
1472,00	538,32
1473,00	456,40
1474,00	435,34
1475,00	510,24
1476,00	489,17
1477,00	507,90
1478,00	503,22
1479,00	456,40
1480,00	484,49
1481,00	514,92
1482,00	500,87
1483,00	477,47
1484,00	461,09
1485,00	428,32
1486,00	465,77
1487,00	507,90
1488,00	449,38
1489,00	479,81
1490,00	440,02
1491,00	514,92
1492,00	418,96
1493,00	519,60
1494,00	496,19
1495,00	472,79
1496,00	521,94
1497,00	491,51
1498,00	458,74
1499,00	449,38
1500,00	454,06
1501,00	535,98
1502,00	505,56
1503,00	486,83
1504,00	472,79
1505,00	489,17
1506,00	425,98
1507,00	486,83
1508,00	519,60
1509,00	458,74
1510,00	503,22
1511,00	454,06
1512,00	475,13
1513,00	486,83
1514,00	458,74
1515,00	517,26
1516,00	533,64
1517,00	456,40
1518,00	470,45
1519,00	484,49
1520,00	479,81
1521,00	489,17
1522,00	533,64
1523,00	528,96
1524,00	458,74
1525,00	465,77
1526,00	414,27
1527,00	477,47
1528,00	451,72
1529,00	484,49
1530,00	477,47
1531,00	503,22
1532,00	528,96
1533,00	447,04
1534,00	493,85
1535,00	444,70
1536,00	479,81
1537,00	543,00
1538,00	496,19
1539,00	528,96
1540,00	444,70
1541,00	521,94
1542,00	470,45
1543,00	470,45
1544,00	512,58
1545,00	411,93
1546,00	468,11
1547,00	454,06
1548,00	491,51
1549,00	500,87
1550,00	507,90
1551,00	475,13
1552,00	505,56
1553,00	479,81
1554,00	482,15
1555,00	519,60
1556,00	524,28
1557,00	447,04
1558,00	477,47
1559,00	484,49
1560,00	543,00
1561,00	528,96
1562,00	395,55
1563,00	503,22
1564,00	505,56
1565,00	517,26
1566,00	510,24
1567,00	540,66
1568,00	482,15
1569,00	477,47
1570,00	538,32
1571,00	458,74
1572,00	454,06
1573,00	484,49
1574,00	442,36
1575,00	458,74
1576,00	500,87
1577,00	421,30
1578,00	442,36
1579,00	496,19
1580,00	461,09
1581,00	521,94
1582,00	472,79
1583,00	451,72
1584,00	514,92
1585,00	533,64
1586,00	547,69
1587,00	507,90
1588,00	498,53
1589,00	498,53
1590,00	458,74
1591,00	498,53
1592,00	510,24
1593,00	514,92
1594,00	461,09
1595,00	486,83
1596,00	423,64
1597,00	491,51
1598,00	437,68
1599,00	472,79
1600,00	454,06
1601,00	507,90
1602,00	519,60
1603,00	472,79
1604,00	423,64
1605,00	430,66
1606,00	461,09
1607,00	472,79
1608,00	486,83
1609,00	498,53
1610,00	507,90
1611,00	486,83
1612,00	484,49
1613,00	468,11
1614,00	489,17
1615,00	402,57
1616,00	400,23
1617,00	514,92
1618,00	428,32
1619,00	397,89
1620,00	456,40
1621,00	524,28
1622,00	493,85
1623,00	475,13
1624,00	491,51
1625,00	437,68
1626,00	503,22
1627,00	451,72
1628,00	521,94
1629,00	493,85
1630,00	521,94
1631,00	458,74
1632,00	470,45
1633,00	477,47
1634,00	493,85
1635,00	514,92
1636,00	491,51
1637,00	472,79
1638,00	465,77
1639,00	552,37
1640,00	414,27
1641,00	484,49
1642,00	524,28
1643,00	514,92
1644,00	456,40
1645,00	447,04
1646,00	407,25
1647,00	489,17
1648,00	521,94
1649,00	503,22
1650,00	447,04
1651,00	484,49
1652,00	503,22
1653,00	475,13
1654,00	451,72
1655,00	461,09
1656,00	484,49
1657,00	475,13
1658,00	507,90
1659,00	475,13
1660,00	437,68
1661,00	517,26
1662,00	407,25
1663,00	451,72
1664,00	458,74
1665,00	484,49
1666,00	468,11
1667,00	484,49
1668,00	503,22
1669,00	521,94
1670,00	451,72
1671,00	430,66
1672,00	484,49
1673,00	479,81
1674,00	489,17
1675,00	540,66
1676,00	489,17
1677,00	512,58
1678,00	533,64
1679,00	496,19
1680,00	458,74
1681,00	472,79
1682,00	421,30
1683,00	472,79
1684,00	500,87
1685,00	505,56
1686,00	500,87
1687,00	465,77
1688,00	449,38
1689,00	491,51
1690,00	461,09
1691,00	482,15
1692,00	470,45
1693,00	463,43
1694,00	449,38
1695,00	514,92
1696,00	444,70
1697,00	496,19
1698,00	491,51
1699,00	517,26
1700,00	498,53
1701,00	533,64
1702,00	486,83
1703,00	517,26
1704,00	491,51
1705,00	470,45
1706,00	475,13
1707,00	503,22
1708,00	543,00
1709,00	468,11
1710,00	472,79
1711,00	493,85
1712,00	458,74
1713,00	514,92
1714,00	425,98
1715,00	498,53
1716,00	589,82
1717,00	470,45
1718,00	482,15
1719,00	463,43
1720,00	463,43
1721,00	437,68
1722,00	493,85
1723,00	468,11
1724,00	493,85
1725,00	496,19
1726,00	512,58
1727,00	512,58
1728,00	521,94
1729,00	547,69
1730,00	493,85
1731,00	433,00
1732,00	498,53
1733,00	458,74
1734,00	470,45
1735,00	444,70
1736,00	423,64
1737,00	470,45
1738,00	475,13
1739,00	498,53
1740,00	550,03
1741,00	524,28
1742,00	489,17
1743,00	458,74
1744,00	458,74
1745,00	447,04
1746,00	500,87
1747,00	465,77
1748,00	493,85
1749,00	414,27
1750,00	493,85
1751,00	418,96
1752,00	538,32
1753,00	440,02
1754,00	493,85
1755,00	507,90
1756,00	463,43
1757,00	468,11
1758,00	468,11
1759,00	493,85
1760,00	547,69
1761,00	514,92
1762,00	531,30
1763,00	528,96
1764,00	468,11
1765,00	528,96
1766,00	437,68
1767,00	433,00
1768,00	503,22
1769,00	503,22
1770,00	428,32
1771,00	512,58
1772,00	479,81
1773,00	489,17
1774,00	470,45
1775,00	454,06
1776,00	458,74
1777,00	517,26
1778,00	484,49
1779,00	479,81
1780,00	482,15
1781,00	540,66
1782,00	456,40
1783,00	433,00
1784,00	421,30
1785,00	533,64
1786,00	479,81
1787,00	470,45
1788,00	461,09
1789,00	477,47
1790,00	484,49
1791,00	489,17
1792,00	482,15
1793,00	496,19
1794,00	505,56
1795,00	482,15
1796,00	468,11
1797,00	463,43
1798,00	479,81
1799,00	461,09
1800,00	510,24
1801,00	458,74
1802,00	484,49
1803,00	470,45
1804,00	465,77
1805,00	472,79
1806,00	430,66
1807,00	528,96
1808,00	524,28
1809,00	442,36
1810,00	461,09
1811,00	512,58
1812,00	491,51
1813,00	498,53
1814,00	465,77
1815,00	458,74
1816,00	585,13
1817,00	451,72
1818,00	454,06
1819,00	479,81
1820,00	440,02
1821,00	533,64
1822,00	470,45
1823,00	543,00
1824,00	388,53
1825,00	498,53
1826,00	423,64
1827,00	465,77
1828,00	528,96
1829,00	526,62
1830,00	451,72
1831,00	489,17
1832,00	416,62
1833,00	449,38
1834,00	468,11
1835,00	430,66
1836,00	444,70
1837,00	451,72
1838,00	517,26
1839,00	519,60
1840,00	440,02
1841,00	444,70
1842,00	503,22
1843,00	458,74
1844,00	521,94
1845,00	510,24
1846,00	447,04
1847,00	493,85
1848,00	486,83
1849,00	479,81
1850,00	486,83
1851,00	463,43
1852,00	397,89
1853,00	451,72
1854,00	463,43
1855,00	393,21
1856,00	489,17
1857,00	454,06
1858,00	496,19
1859,00	440,02
1860,00	524,28
1861,00	484,49
1862,00	425,98
1863,00	430,66
1864,00	465,77
1865,00	531,30
1866,00	486,83
1867,00	538,32
1868,00	517,26
1869,00	514,92
1870,00	463,43
1871,00	484,49
1872,00	461,09
1873,00	458,74
1874,00	498,53
1875,00	465,77
1876,00	477,47
1877,00	505,56
1878,00	550,03
1879,00	465,77
1880,00	456,40
1881,00	454,06
1882,00	470,45
1883,00	517,26
1884,00	491,51
1885,00	465,77
1886,00	479,81
1887,00	465,77
1888,00	484,49
1889,00	472,79
1890,00	465,77
1891,00	510,24
1892,00	465,77
1893,00	468,11
1894,00	491,51
1895,00	444,70
1896,00	456,40
1897,00	451,72
1898,00	463,43
1899,00	444,70
1900,00	418,96
1901,00	430,66
1902,00	461,09
1903,00	463,43
1904,00	428,32
1905,00	517,26
1906,00	550,03
1907,00	519,60
1908,00	355,76
1909,00	447,04
1910,00	484,49
1911,00	404,91
1912,00	468,11
1913,00	505,56
1914,00	484,49
1915,00	510,24
1916,00	498,53
1917,00	531,30
1918,00	482,15
1919,00	465,77
1920,00	498,53
1921,00	521,94
1922,00	472,79
1923,00	500,87
1924,00	475,13
1925,00	451,72
1926,00	465,77
1927,00	479,81
1928,00	493,85
1929,00	500,87
1930,00	482,15
1931,00	430,66
1932,00	482,15
1933,00	468,11
1934,00	482,15
1935,00	493,85
1936,00	482,15
1937,00	449,38
1938,00	444,70
1939,00	472,79
1940,00	475,13
1941,00	472,79
1942,00	493,85
1943,00	421,30
1944,00	449,38
1945,00	456,40
1946,00	510,24
1947,00	526,62
1948,00	484,49
1949,00	421,30
1950,00	507,90
1951,00	442,36
1952,00	498,53
1953,00	528,96
1954,00	493,85
1955,00	477,47
1956,00	423,64
1957,00	433,00
1958,00	465,77
1959,00	528,96
1960,00	444,70
1961,00	503,22
1962,00	451,72
1963,00	447,04
1964,00	496,19
1965,00	493,85
1966,00	507,90
1967,00	482,15
1968,00	477,47
1969,00	484,49
1970,00	528,96
1971,00	435,34
1972,00	437,68
1973,00	510,24
1974,00	507,90
1975,00	496,19
1976,00	479,81
1977,00	507,90
1978,00	571,09
1979,00	407,25
1980,00	411,93
1981,00	538,32
1982,00	470,45
1983,00	507,90
1984,00	498,53
1985,00	477,47
1986,00	437,68
1987,00	514,92
1988,00	456,40
1989,00	409,59
1990,00	486,83
1991,00	430,66
1992,00	503,22
1993,00	454,06
1994,00	491,51
1995,00	449,38
1996,00	449,38
1997,00	447,04
1998,00	486,83
1999,00	437,68
2000,00	477,47
2001,00	454,06
2002,00	479,81
2003,00	425,98
2004,00	435,34
2005,00	547,69
2006,00	470,45
2007,00	477,47
2008,00	482,15
2009,00	451,72
2010,00	414,27
2011,00	472,79
2012,00	484,49
2013,00	463,43
2014,00	435,34
2015,00	465,77
2016,00	407,25
2017,00	430,66
2018,00	447,04
2019,00	479,81
2020,00	491,51
2021,00	543,00
2022,00	463,43
2023,00	472,79
2024,00	416,62
2025,00	451,72
2026,00	491,51
2027,00	465,77
2028,00	416,62
2029,00	479,81
2030,00	491,51
2031,00	470,45
2032,00	524,28
2033,00	451,72
2034,00	477,47
2035,00	458,74
2036,00	456,40
2037,00	451,72
2038,00	507,90
2039,00	421,30
2040,00	468,11
2041,00	486,83
2042,00	456,40
2043,00	475,13
2044,00	498,53
2045,00	451,72
2046,00	479,81
2047,00	477,47
>>>>>End Processed Spectral Data<<<<<
