SpectraSuite Data File
++++++++++++++++++++++++++++++++++++
Date: Thu May 04 17:47:09 BRT 2017
User: aluno
Dark Spectrum Present: No
Reference Spectrum Present: No
Number of Sampled Component Spectra: 1
Spectrometers: USB2+H08582
Integration Time (usec): 100000 (USB2+H08582)
Spectra Averaged: 1 (USB2+H08582)
Boxcar Smoothing: 0 (USB2+H08582)
Correct for Electrical Dark: No (USB2+H08582)
Strobe/Lamp Enabled: No (USB2+H08582)
Correct for Detector Non-linearity: No (USB2+H08582)
Correct for Stray Light: No (USB2+H08582)
Number of Pixels in Processed Spectrum: 2048
>>>>>Begin Processed Spectral Data<<<<<
0,00	418,96
1,00	418,96
2,00	418,96
3,00	409,59
4,00	358,10
5,00	428,32
6,00	362,78
7,00	306,61
8,00	374,49
9,00	315,97
10,00	332,36
11,00	358,10
12,00	311,29
13,00	346,40
14,00	301,93
15,00	334,70
16,00	402,57
17,00	369,80
18,00	360,44
19,00	397,89
20,00	472,79
21,00	379,17
22,00	393,21
23,00	414,27
24,00	465,77
25,00	395,55
26,00	430,66
27,00	409,59
28,00	428,32
29,00	521,94
30,00	409,59
31,00	491,51
32,00	456,40
33,00	507,90
34,00	514,92
35,00	472,79
36,00	498,53
37,00	461,09
38,00	397,89
39,00	493,85
40,00	491,51
41,00	454,06
42,00	435,34
43,00	503,22
44,00	493,85
45,00	447,04
46,00	458,74
47,00	465,77
48,00	458,74
49,00	575,77
50,00	500,87
51,00	517,26
52,00	465,77
53,00	430,66
54,00	463,43
55,00	491,51
56,00	484,49
57,00	465,77
58,00	489,17
59,00	512,58
60,00	479,81
61,00	451,72
62,00	500,87
63,00	489,17
64,00	442,36
65,00	486,83
66,00	519,60
67,00	498,53
68,00	458,74
69,00	512,58
70,00	500,87
71,00	484,49
72,00	463,43
73,00	503,22
74,00	468,11
75,00	505,56
76,00	514,92
77,00	418,96
78,00	451,72
79,00	533,64
80,00	489,17
81,00	440,02
82,00	437,68
83,00	465,77
84,00	491,51
85,00	477,47
86,00	475,13
87,00	470,45
88,00	547,69
89,00	540,66
90,00	566,41
91,00	465,77
92,00	475,13
93,00	498,53
94,00	491,51
95,00	505,56
96,00	531,30
97,00	456,40
98,00	528,96
99,00	535,98
100,00	461,09
101,00	482,15
102,00	449,38
103,00	491,51
104,00	512,58
105,00	500,87
106,00	554,71
107,00	498,53
108,00	486,83
109,00	479,81
110,00	528,96
111,00	533,64
112,00	409,59
113,00	477,47
114,00	498,53
115,00	493,85
116,00	496,19
117,00	477,47
118,00	512,58
119,00	505,56
120,00	493,85
121,00	461,09
122,00	505,56
123,00	498,53
124,00	465,77
125,00	521,94
126,00	514,92
127,00	524,28
128,00	489,17
129,00	454,06
130,00	486,83
131,00	472,79
132,00	475,13
133,00	514,92
134,00	461,09
135,00	484,49
136,00	451,72
137,00	461,09
138,00	564,07
139,00	475,13
140,00	465,77
141,00	533,64
142,00	475,13
143,00	341,72
144,00	463,43
145,00	489,17
146,00	493,85
147,00	545,34
148,00	526,62
149,00	493,85
150,00	545,34
151,00	484,49
152,00	472,79
153,00	528,96
154,00	505,56
155,00	479,81
156,00	505,56
157,00	468,11
158,00	585,13
159,00	503,22
160,00	533,64
161,00	486,83
162,00	477,47
163,00	505,56
164,00	535,98
165,00	451,72
166,00	498,53
167,00	538,32
168,00	475,13
169,00	479,81
170,00	580,45
171,00	465,77
172,00	512,58
173,00	486,83
174,00	538,32
175,00	456,40
176,00	519,60
177,00	512,58
178,00	526,62
179,00	472,79
180,00	512,58
181,00	557,05
182,00	479,81
183,00	517,26
184,00	496,19
185,00	486,83
186,00	510,24
187,00	456,40
188,00	468,11
189,00	498,53
190,00	491,51
191,00	554,71
192,00	456,40
193,00	521,94
194,00	540,66
195,00	430,66
196,00	475,13
197,00	479,81
198,00	510,24
199,00	479,81
200,00	528,96
201,00	498,53
202,00	461,09
203,00	470,45
204,00	500,87
205,00	484,49
206,00	472,79
207,00	500,87
208,00	477,47
209,00	517,26
210,00	435,34
211,00	479,81
212,00	491,51
213,00	433,00
214,00	465,77
215,00	433,00
216,00	484,49
217,00	489,17
218,00	521,94
219,00	535,98
220,00	484,49
221,00	433,00
222,00	461,09
223,00	475,13
224,00	486,83
225,00	543,00
226,00	510,24
227,00	451,72
228,00	491,51
229,00	440,02
230,00	498,53
231,00	463,43
232,00	519,60
233,00	470,45
234,00	503,22
235,00	554,71
236,00	456,40
237,00	465,77
238,00	486,83
239,00	489,17
240,00	491,51
241,00	507,90
242,00	510,24
243,00	472,79
244,00	461,09
245,00	472,79
246,00	524,28
247,00	456,40
248,00	484,49
249,00	512,58
250,00	475,13
251,00	507,90
252,00	554,71
253,00	477,47
254,00	496,19
255,00	517,26
256,00	433,00
257,00	514,92
258,00	451,72
259,00	503,22
260,00	498,53
261,00	500,87
262,00	526,62
263,00	472,79
264,00	519,60
265,00	463,43
266,00	507,90
267,00	545,34
268,00	468,11
269,00	472,79
270,00	533,64
271,00	491,51
272,00	489,17
273,00	416,62
274,00	444,70
275,00	498,53
276,00	496,19
277,00	482,15
278,00	543,00
279,00	486,83
280,00	496,19
281,00	493,85
282,00	538,32
283,00	498,53
284,00	521,94
285,00	475,13
286,00	430,66
287,00	491,51
288,00	521,94
289,00	533,64
290,00	498,53
291,00	447,04
292,00	430,66
293,00	521,94
294,00	451,72
295,00	458,74
296,00	493,85
297,00	500,87
298,00	505,56
299,00	486,83
300,00	540,66
301,00	479,81
302,00	519,60
303,00	524,28
304,00	484,49
305,00	498,53
306,00	493,85
307,00	482,15
308,00	545,34
309,00	496,19
310,00	447,04
311,00	472,79
312,00	470,45
313,00	479,81
314,00	461,09
315,00	500,87
316,00	465,77
317,00	482,15
318,00	442,36
319,00	470,45
320,00	470,45
321,00	484,49
322,00	543,00
323,00	526,62
324,00	468,11
325,00	547,69
326,00	486,83
327,00	440,02
328,00	500,87
329,00	491,51
330,00	538,32
331,00	545,34
332,00	554,71
333,00	496,19
334,00	507,90
335,00	468,11
336,00	463,43
337,00	521,94
338,00	500,87
339,00	425,98
340,00	482,15
341,00	517,26
342,00	510,24
343,00	564,07
344,00	470,45
345,00	524,28
346,00	531,30
347,00	503,22
348,00	451,72
349,00	468,11
350,00	491,51
351,00	496,19
352,00	477,47
353,00	470,45
354,00	505,56
355,00	533,64
356,00	517,26
357,00	463,43
358,00	543,00
359,00	519,60
360,00	491,51
361,00	477,47
362,00	512,58
363,00	519,60
364,00	496,19
365,00	484,49
366,00	496,19
367,00	505,56
368,00	526,62
369,00	503,22
370,00	512,58
371,00	547,69
372,00	521,94
373,00	484,49
374,00	428,32
375,00	535,98
376,00	498,53
377,00	477,47
378,00	531,30
379,00	440,02
380,00	514,92
381,00	454,06
382,00	512,58
383,00	496,19
384,00	482,15
385,00	479,81
386,00	428,32
387,00	489,17
388,00	528,96
389,00	545,34
390,00	512,58
391,00	521,94
392,00	498,53
393,00	472,79
394,00	510,24
395,00	456,40
396,00	545,34
397,00	435,34
398,00	482,15
399,00	484,49
400,00	510,24
401,00	519,60
402,00	489,17
403,00	512,58
404,00	472,79
405,00	465,77
406,00	402,57
407,00	482,15
408,00	526,62
409,00	571,09
410,00	514,92
411,00	524,28
412,00	454,06
413,00	484,49
414,00	451,72
415,00	500,87
416,00	496,19
417,00	496,19
418,00	498,53
419,00	528,96
420,00	500,87
421,00	461,09
422,00	465,77
423,00	477,47
424,00	550,03
425,00	454,06
426,00	472,79
427,00	519,60
428,00	486,83
429,00	470,45
430,00	510,24
431,00	477,47
432,00	433,00
433,00	430,66
434,00	477,47
435,00	517,26
436,00	521,94
437,00	472,79
438,00	461,09
439,00	407,25
440,00	468,11
441,00	538,32
442,00	503,22
443,00	543,00
444,00	500,87
445,00	517,26
446,00	479,81
447,00	472,79
448,00	505,56
449,00	489,17
450,00	486,83
451,00	451,72
452,00	524,28
453,00	524,28
454,00	472,79
455,00	521,94
456,00	489,17
457,00	449,38
458,00	479,81
459,00	531,30
460,00	543,00
461,00	521,94
462,00	463,43
463,00	470,45
464,00	493,85
465,00	503,22
466,00	456,40
467,00	498,53
468,00	470,45
469,00	500,87
470,00	484,49
471,00	528,96
472,00	479,81
473,00	524,28
474,00	535,98
475,00	416,62
476,00	507,90
477,00	484,49
478,00	493,85
479,00	493,85
480,00	493,85
481,00	493,85
482,00	505,56
483,00	538,32
484,00	533,64
485,00	505,56
486,00	493,85
487,00	472,79
488,00	533,64
489,00	505,56
490,00	477,47
491,00	482,15
492,00	514,92
493,00	554,71
494,00	550,03
495,00	444,70
496,00	512,58
497,00	468,11
498,00	545,34
499,00	440,02
500,00	418,96
501,00	470,45
502,00	524,28
503,00	531,30
504,00	571,09
505,00	545,34
506,00	547,69
507,00	498,53
508,00	505,56
509,00	482,15
510,00	451,72
511,00	440,02
512,00	447,04
513,00	477,47
514,00	521,94
515,00	533,64
516,00	430,66
517,00	479,81
518,00	547,69
519,00	528,96
520,00	463,43
521,00	575,77
522,00	461,09
523,00	449,38
524,00	500,87
525,00	461,09
526,00	477,47
527,00	514,92
528,00	510,24
529,00	493,85
530,00	472,79
531,00	620,24
532,00	491,51
533,00	475,13
534,00	491,51
535,00	491,51
536,00	528,96
537,00	491,51
538,00	528,96
539,00	557,05
540,00	493,85
541,00	484,49
542,00	484,49
543,00	477,47
544,00	498,53
545,00	510,24
546,00	566,41
547,00	388,53
548,00	528,96
549,00	510,24
550,00	482,15
551,00	442,36
552,00	519,60
553,00	524,28
554,00	493,85
555,00	451,72
556,00	491,51
557,00	489,17
558,00	484,49
559,00	414,27
560,00	468,11
561,00	545,34
562,00	526,62
563,00	510,24
564,00	512,58
565,00	496,19
566,00	538,32
567,00	482,15
568,00	524,28
569,00	470,45
570,00	491,51
571,00	526,62
572,00	526,62
573,00	456,40
574,00	447,04
575,00	491,51
576,00	512,58
577,00	503,22
578,00	486,83
579,00	517,26
580,00	493,85
581,00	573,43
582,00	465,77
583,00	500,87
584,00	472,79
585,00	463,43
586,00	435,34
587,00	510,24
588,00	465,77
589,00	535,98
590,00	521,94
591,00	493,85
592,00	465,77
593,00	496,19
594,00	472,79
595,00	468,11
596,00	547,69
597,00	486,83
598,00	475,13
599,00	458,74
600,00	526,62
601,00	433,00
602,00	491,51
603,00	493,85
604,00	486,83
605,00	447,04
606,00	540,66
607,00	470,45
608,00	568,75
609,00	468,11
610,00	482,15
611,00	524,28
612,00	521,94
613,00	519,60
614,00	463,43
615,00	475,13
616,00	493,85
617,00	503,22
618,00	475,13
619,00	500,87
620,00	512,58
621,00	479,81
622,00	526,62
623,00	486,83
624,00	456,40
625,00	519,60
626,00	519,60
627,00	531,30
628,00	519,60
629,00	512,58
630,00	521,94
631,00	510,24
632,00	528,96
633,00	472,79
634,00	524,28
635,00	472,79
636,00	472,79
637,00	475,13
638,00	493,85
639,00	507,90
640,00	482,15
641,00	540,66
642,00	545,34
643,00	517,26
644,00	486,83
645,00	510,24
646,00	505,56
647,00	484,49
648,00	496,19
649,00	552,37
650,00	512,58
651,00	479,81
652,00	475,13
653,00	547,69
654,00	524,28
655,00	447,04
656,00	458,74
657,00	470,45
658,00	493,85
659,00	454,06
660,00	447,04
661,00	470,45
662,00	535,98
663,00	503,22
664,00	493,85
665,00	475,13
666,00	543,00
667,00	519,60
668,00	470,45
669,00	493,85
670,00	540,66
671,00	479,81
672,00	498,53
673,00	526,62
674,00	533,64
675,00	519,60
676,00	531,30
677,00	517,26
678,00	493,85
679,00	528,96
680,00	547,69
681,00	519,60
682,00	589,82
683,00	543,00
684,00	510,24
685,00	524,28
686,00	498,53
687,00	423,64
688,00	491,51
689,00	543,00
690,00	512,58
691,00	545,34
692,00	564,07
693,00	608,54
694,00	535,98
695,00	566,41
696,00	407,25
697,00	547,69
698,00	557,05
699,00	528,96
700,00	503,22
701,00	505,56
702,00	456,40
703,00	505,56
704,00	505,56
705,00	493,85
706,00	507,90
707,00	477,47
708,00	573,43
709,00	477,47
710,00	482,15
711,00	526,62
712,00	472,79
713,00	475,13
714,00	517,26
715,00	578,11
716,00	514,92
717,00	482,15
718,00	557,05
719,00	496,19
720,00	496,19
721,00	503,22
722,00	526,62
723,00	531,30
724,00	592,16
725,00	505,56
726,00	505,56
727,00	437,68
728,00	482,15
729,00	510,24
730,00	512,58
731,00	475,13
732,00	535,98
733,00	538,32
734,00	491,51
735,00	489,17
736,00	528,96
737,00	528,96
738,00	531,30
739,00	512,58
740,00	475,13
741,00	456,40
742,00	498,53
743,00	493,85
744,00	517,26
745,00	489,17
746,00	526,62
747,00	482,15
748,00	505,56
749,00	479,81
750,00	505,56
751,00	571,09
752,00	477,47
753,00	409,59
754,00	486,83
755,00	550,03
756,00	524,28
757,00	533,64
758,00	554,71
759,00	505,56
760,00	503,22
761,00	486,83
762,00	475,13
763,00	512,58
764,00	517,26
765,00	489,17
766,00	491,51
767,00	540,66
768,00	568,75
769,00	557,05
770,00	468,11
771,00	526,62
772,00	519,60
773,00	514,92
774,00	538,32
775,00	510,24
776,00	507,90
777,00	503,22
778,00	528,96
779,00	470,45
780,00	589,82
781,00	505,56
782,00	580,45
783,00	493,85
784,00	517,26
785,00	528,96
786,00	533,64
787,00	449,38
788,00	547,69
789,00	477,47
790,00	533,64
791,00	564,07
792,00	528,96
793,00	489,17
794,00	552,37
795,00	547,69
796,00	533,64
797,00	517,26
798,00	571,09
799,00	585,13
800,00	531,30
801,00	482,15
802,00	524,28
803,00	554,71
804,00	507,90
805,00	545,34
806,00	479,81
807,00	552,37
808,00	505,56
809,00	500,87
810,00	561,73
811,00	505,56
812,00	582,79
813,00	505,56
814,00	535,98
815,00	531,30
816,00	528,96
817,00	500,87
818,00	592,16
819,00	482,15
820,00	535,98
821,00	550,03
822,00	538,32
823,00	503,22
824,00	552,37
825,00	550,03
826,00	510,24
827,00	550,03
828,00	479,81
829,00	575,77
830,00	489,17
831,00	545,34
832,00	564,07
833,00	496,19
834,00	517,26
835,00	535,98
836,00	505,56
837,00	608,54
838,00	531,30
839,00	543,00
840,00	496,19
841,00	521,94
842,00	528,96
843,00	585,13
844,00	503,22
845,00	573,43
846,00	545,34
847,00	545,34
848,00	510,24
849,00	465,77
850,00	484,49
851,00	564,07
852,00	524,28
853,00	545,34
854,00	540,66
855,00	517,26
856,00	526,62
857,00	519,60
858,00	573,43
859,00	458,74
860,00	528,96
861,00	479,81
862,00	491,51
863,00	540,66
864,00	543,00
865,00	557,05
866,00	528,96
867,00	554,71
868,00	545,34
869,00	470,45
870,00	535,98
871,00	493,85
872,00	540,66
873,00	517,26
874,00	521,94
875,00	535,98
876,00	505,56
877,00	571,09
878,00	535,98
879,00	491,51
880,00	486,83
881,00	561,73
882,00	519,60
883,00	557,05
884,00	463,43
885,00	543,00
886,00	540,66
887,00	578,11
888,00	552,37
889,00	543,00
890,00	554,71
891,00	528,96
892,00	526,62
893,00	512,58
894,00	559,39
895,00	510,24
896,00	564,07
897,00	510,24
898,00	514,92
899,00	524,28
900,00	468,11
901,00	521,94
902,00	482,15
903,00	486,83
904,00	526,62
905,00	575,77
906,00	503,22
907,00	531,30
908,00	498,53
909,00	552,37
910,00	463,43
911,00	526,62
912,00	526,62
913,00	566,41
914,00	528,96
915,00	503,22
916,00	512,58
917,00	533,64
918,00	489,17
919,00	482,15
920,00	526,62
921,00	456,40
922,00	496,19
923,00	550,03
924,00	552,37
925,00	528,96
926,00	517,26
927,00	566,41
928,00	491,51
929,00	589,82
930,00	552,37
931,00	566,41
932,00	531,30
933,00	580,45
934,00	505,56
935,00	505,56
936,00	505,56
937,00	545,34
938,00	496,19
939,00	507,90
940,00	554,71
941,00	559,39
942,00	575,77
943,00	470,45
944,00	533,64
945,00	524,28
946,00	489,17
947,00	521,94
948,00	554,71
949,00	521,94
950,00	486,83
951,00	610,88
952,00	463,43
953,00	521,94
954,00	580,45
955,00	507,90
956,00	512,58
957,00	540,66
958,00	512,58
959,00	557,05
960,00	479,81
961,00	524,28
962,00	521,94
963,00	503,22
964,00	531,30
965,00	505,56
966,00	676,41
967,00	561,73
968,00	566,41
969,00	517,26
970,00	550,03
971,00	505,56
972,00	571,09
973,00	475,13
974,00	491,51
975,00	503,22
976,00	512,58
977,00	561,73
978,00	493,85
979,00	535,98
980,00	489,17
981,00	594,50
982,00	540,66
983,00	486,83
984,00	503,22
985,00	535,98
986,00	557,05
987,00	554,71
988,00	617,90
989,00	557,05
990,00	655,35
991,00	645,99
992,00	596,84
993,00	550,03
994,00	582,79
995,00	524,28
996,00	552,37
997,00	552,37
998,00	650,67
999,00	606,20
1000,00	622,58
1001,00	706,84
1002,00	685,78
1003,00	617,90
1004,00	543,00
1005,00	610,88
1006,00	603,86
1007,00	587,47
1008,00	535,98
1009,00	545,34
1010,00	601,52
1011,00	561,73
1012,00	554,71
1013,00	624,92
1014,00	578,11
1015,00	557,05
1016,00	543,00
1017,00	582,79
1018,00	554,71
1019,00	573,43
1020,00	559,39
1021,00	561,73
1022,00	557,05
1023,00	514,92
1024,00	517,26
1025,00	571,09
1026,00	606,20
1027,00	540,66
1028,00	582,79
1029,00	557,05
1030,00	540,66
1031,00	524,28
1032,00	582,79
1033,00	603,86
1034,00	540,66
1035,00	521,94
1036,00	580,45
1037,00	550,03
1038,00	545,34
1039,00	538,32
1040,00	526,62
1041,00	512,58
1042,00	550,03
1043,00	543,00
1044,00	580,45
1045,00	571,09
1046,00	629,60
1047,00	617,90
1048,00	610,88
1049,00	634,29
1050,00	594,50
1051,00	552,37
1052,00	521,94
1053,00	528,96
1054,00	589,82
1055,00	603,86
1056,00	561,73
1057,00	535,98
1058,00	589,82
1059,00	503,22
1060,00	580,45
1061,00	533,64
1062,00	575,77
1063,00	571,09
1064,00	538,32
1065,00	564,07
1066,00	578,11
1067,00	566,41
1068,00	585,13
1069,00	596,84
1070,00	561,73
1071,00	550,03
1072,00	557,05
1073,00	610,88
1074,00	573,43
1075,00	571,09
1076,00	617,90
1077,00	631,94
1078,00	552,37
1079,00	601,52
1080,00	589,82
1081,00	653,01
1082,00	561,73
1083,00	566,41
1084,00	573,43
1085,00	564,07
1086,00	601,52
1087,00	599,18
1088,00	603,86
1089,00	594,50
1090,00	638,97
1091,00	643,65
1092,00	641,31
1093,00	627,26
1094,00	653,01
1095,00	589,82
1096,00	606,20
1097,00	629,60
1098,00	627,26
1099,00	589,82
1100,00	617,90
1101,00	627,26
1102,00	617,90
1103,00	610,88
1104,00	676,41
1105,00	706,84
1106,00	631,94
1107,00	655,35
1108,00	690,46
1109,00	669,39
1110,00	676,41
1111,00	713,86
1112,00	676,41
1113,00	695,14
1114,00	664,71
1115,00	702,16
1116,00	690,46
1117,00	713,86
1118,00	683,44
1119,00	723,23
1120,00	727,91
1121,00	695,14
1122,00	727,91
1123,00	755,99
1124,00	755,99
1125,00	695,14
1126,00	727,91
1127,00	725,57
1128,00	734,93
1129,00	720,88
1130,00	863,66
1131,00	755,99
1132,00	851,96
1133,00	830,89
1134,00	868,34
1135,00	844,93
1136,00	861,32
1137,00	905,79
1138,00	912,81
1139,00	873,02
1140,00	917,49
1141,00	903,45
1142,00	847,27
1143,00	945,58
1144,00	901,11
1145,00	976,00
1146,00	1001,75
1147,00	1001,75
1148,00	1053,24
1149,00	985,37
1150,00	1041,54
1151,00	1111,75
1152,00	1114,10
1153,00	1146,86
1154,00	1146,86
1155,00	1081,33
1156,00	1146,86
1157,00	1118,78
1158,00	1203,04
1159,00	1284,95
1160,00	1217,08
1161,00	1270,91
1162,00	1270,91
1163,00	1207,72
1164,00	1317,72
1165,00	1401,98
1166,00	1434,75
1167,00	1327,08
1168,00	1399,64
1169,00	1551,78
1170,00	1472,20
1171,00	1568,16
1172,00	1554,12
1173,00	1549,43
1174,00	1544,75
1175,00	1659,44
1176,00	1666,46
1177,00	1706,25
1178,00	1692,21
1179,00	1720,29
1180,00	1720,29
1181,00	1781,15
1182,00	1813,92
1183,00	1884,13
1184,00	1940,30
1185,00	1991,80
1186,00	1980,09
1187,00	2148,61
1188,00	2125,21
1189,00	2188,40
1190,00	2275,00
1191,00	2314,79
1192,00	2345,22
1193,00	2406,07
1194,00	2452,88
1195,00	2466,92
1196,00	2705,66
1197,00	2672,89
1198,00	2656,51
1199,00	2773,53
1200,00	2895,24
1201,00	2899,92
1202,00	3077,80
1203,00	3052,06
1204,00	3040,36
1205,00	3129,30
1206,00	3166,74
1207,00	3440,59
1208,00	3513,14
1209,00	3566,98
1210,00	3620,81
1211,00	3712,09
1212,00	3967,21
1213,00	3941,46
1214,00	4170,83
1215,00	4196,58
1216,00	4273,82
1217,00	4236,37
1218,00	4688,09
1219,00	4741,93
1220,00	4957,25
1221,00	5097,69
1222,00	5289,61
1223,00	5514,30
1224,00	5600,90
1225,00	5736,65
1226,00	6015,18
1227,00	6073,69
1228,00	6284,34
1229,00	6551,16
1230,00	6801,60
1231,00	7105,87
1232,00	7243,96
1233,00	7393,75
1234,00	7756,54
1235,00	7936,76
1236,00	8030,38
1237,00	8631,90
1238,00	8723,18
1239,00	8884,67
1240,00	9172,56
1241,00	9781,10
1242,00	9830,25
1243,00	10345,17
1244,00	10731,36
1245,00	11115,20
1246,00	11360,96
1247,00	11990,56
1248,00	12545,27
1249,00	12985,29
1250,00	13345,73
1251,00	13848,95
1252,00	14429,40
1253,00	14904,53
1254,00	15463,92
1255,00	15955,43
1256,00	16290,13
1257,00	17444,01
1258,00	17621,89
1259,00	18113,41
1260,00	18888,12
1261,00	19852,42
1262,00	19948,39
1263,00	20865,88
1264,00	21343,35
1265,00	22530,00
1266,00	23051,94
1267,00	24161,35
1268,00	24882,24
1269,00	25544,61
1270,00	25855,90
1271,00	26157,83
1272,00	26696,15
1273,00	27241,50
1274,00	28556,88
1275,00	28772,21
1276,00	29773,95
1277,00	30288,87
1278,00	31255,51
1279,00	32098,11
1280,00	32652,81
1281,00	33722,44
1282,00	34609,50
1283,00	35629,98
1284,00	36418,74
1285,00	37256,65
1286,00	37991,58
1287,00	38836,51
1288,00	38698,42
1289,00	39531,65
1290,00	40428,07
1291,00	41205,13
1292,00	42171,77
1293,00	42878,61
1294,00	43681,42
1295,00	43833,55
1296,00	44619,97
1297,00	45244,90
1298,00	45188,72
1299,00	45895,56
1300,00	46148,34
1301,00	45909,61
1302,00	45432,14
1303,00	45485,97
1304,00	45041,27
1305,00	44556,78
1306,00	43243,74
1307,00	41706,01
1308,00	39744,64
1309,00	37858,17
1310,00	36311,07
1311,00	33516,47
1312,00	31948,31
1313,00	30279,51
1314,00	29149,03
1315,00	27873,44
1316,00	26190,59
1317,00	24343,91
1318,00	23068,32
1319,00	22157,85
1320,00	21090,57
1321,00	20168,40
1322,00	18860,04
1323,00	17708,49
1324,00	16538,23
1325,00	15726,06
1326,00	14995,81
1327,00	14822,61
1328,00	14590,90
1329,00	13745,97
1330,00	13530,64
1331,00	12837,84
1332,00	12437,61
1333,00	11700,34
1334,00	11286,06
1335,00	11152,65
1336,00	10698,59
1337,00	10083,03
1338,00	10022,17
1339,00	9586,83
1340,00	9359,80
1341,00	8863,61
1342,00	8648,28
1343,00	7960,16
1344,00	7688,66
1345,00	7283,75
1346,00	6965,43
1347,00	6843,73
1348,00	6457,54
1349,00	6031,56
1350,00	5832,62
1351,00	5577,50
1352,00	5308,34
1353,00	5125,77
1354,00	4821,50
1355,00	4510,21
1356,00	4297,22
1357,00	3992,95
1358,00	3887,63
1359,00	3583,36
1360,00	3492,08
1361,00	3290,79
1362,00	3169,09
1363,00	2963,12
1364,00	2834,39
1365,00	2775,88
1366,00	2649,49
1367,00	2499,69
1368,00	2321,81
1369,00	2345,22
1370,00	2214,15
1371,00	2017,54
1372,00	2005,84
1373,00	1984,77
1374,00	1933,28
1375,00	1809,23
1376,00	1820,94
1377,00	1645,40
1378,00	1593,90
1379,00	1516,67
1380,00	1458,15
1381,00	1530,71
1382,00	1369,21
1383,00	1327,08
1384,00	1336,45
1385,00	1252,19
1386,00	1221,76
1387,00	1179,63
1388,00	1224,10
1389,00	1153,88
1390,00	1146,86
1391,00	1069,62
1392,00	1109,41
1393,00	1069,62
1394,00	966,64
1395,00	933,87
1396,00	940,90
1397,00	976,00
1398,00	919,83
1399,00	908,13
1400,00	938,55
1401,00	901,11
1402,00	821,53
1403,00	875,36
1404,00	835,57
1405,00	737,27
1406,00	786,42
1407,00	826,21
1408,00	809,83
1409,00	840,25
1410,00	746,63
1411,00	741,95
1412,00	702,16
1413,00	767,70
1414,00	681,10
1415,00	699,82
1416,00	690,46
1417,00	723,23
1418,00	674,07
1419,00	655,35
1420,00	681,10
1421,00	606,20
1422,00	610,88
1423,00	606,20
1424,00	662,37
1425,00	610,88
1426,00	620,24
1427,00	575,77
1428,00	648,33
1429,00	641,31
1430,00	671,73
1431,00	589,82
1432,00	629,60
1433,00	606,20
1434,00	629,60
1435,00	653,01
1436,00	624,92
1437,00	479,81
1438,00	486,83
1439,00	585,13
1440,00	596,84
1441,00	589,82
1442,00	585,13
1443,00	559,39
1444,00	550,03
1445,00	599,18
1446,00	533,64
1447,00	510,24
1448,00	491,51
1449,00	538,32
1450,00	554,71
1451,00	540,66
1452,00	557,05
1453,00	489,17
1454,00	543,00
1455,00	547,69
1456,00	571,09
1457,00	491,51
1458,00	547,69
1459,00	603,86
1460,00	547,69
1461,00	538,32
1462,00	517,26
1463,00	550,03
1464,00	561,73
1465,00	585,13
1466,00	540,66
1467,00	521,94
1468,00	500,87
1469,00	482,15
1470,00	493,85
1471,00	582,79
1472,00	535,98
1473,00	535,98
1474,00	540,66
1475,00	535,98
1476,00	547,69
1477,00	531,30
1478,00	585,13
1479,00	524,28
1480,00	608,54
1481,00	564,07
1482,00	571,09
1483,00	526,62
1484,00	543,00
1485,00	568,75
1486,00	564,07
1487,00	524,28
1488,00	564,07
1489,00	498,53
1490,00	552,37
1491,00	526,62
1492,00	418,96
1493,00	486,83
1494,00	486,83
1495,00	514,92
1496,00	559,39
1497,00	552,37
1498,00	514,92
1499,00	528,96
1500,00	470,45
1501,00	489,17
1502,00	505,56
1503,00	512,58
1504,00	512,58
1505,00	510,24
1506,00	538,32
1507,00	517,26
1508,00	451,72
1509,00	489,17
1510,00	510,24
1511,00	578,11
1512,00	493,85
1513,00	517,26
1514,00	507,90
1515,00	557,05
1516,00	526,62
1517,00	521,94
1518,00	449,38
1519,00	512,58
1520,00	517,26
1521,00	571,09
1522,00	533,64
1523,00	543,00
1524,00	528,96
1525,00	484,49
1526,00	512,58
1527,00	503,22
1528,00	484,49
1529,00	526,62
1530,00	507,90
1531,00	479,81
1532,00	451,72
1533,00	477,47
1534,00	526,62
1535,00	479,81
1536,00	510,24
1537,00	489,17
1538,00	472,79
1539,00	521,94
1540,00	507,90
1541,00	507,90
1542,00	486,83
1543,00	475,13
1544,00	528,96
1545,00	517,26
1546,00	489,17
1547,00	543,00
1548,00	521,94
1549,00	500,87
1550,00	470,45
1551,00	465,77
1552,00	498,53
1553,00	496,19
1554,00	489,17
1555,00	519,60
1556,00	440,02
1557,00	526,62
1558,00	500,87
1559,00	477,47
1560,00	517,26
1561,00	526,62
1562,00	512,58
1563,00	514,92
1564,00	550,03
1565,00	535,98
1566,00	503,22
1567,00	526,62
1568,00	524,28
1569,00	545,34
1570,00	484,49
1571,00	510,24
1572,00	503,22
1573,00	503,22
1574,00	514,92
1575,00	493,85
1576,00	489,17
1577,00	545,34
1578,00	507,90
1579,00	535,98
1580,00	505,56
1581,00	411,93
1582,00	517,26
1583,00	519,60
1584,00	500,87
1585,00	496,19
1586,00	514,92
1587,00	482,15
1588,00	493,85
1589,00	479,81
1590,00	472,79
1591,00	512,58
1592,00	517,26
1593,00	486,83
1594,00	496,19
1595,00	543,00
1596,00	554,71
1597,00	458,74
1598,00	496,19
1599,00	451,72
1600,00	566,41
1601,00	496,19
1602,00	512,58
1603,00	458,74
1604,00	447,04
1605,00	547,69
1606,00	524,28
1607,00	496,19
1608,00	517,26
1609,00	465,77
1610,00	482,15
1611,00	552,37
1612,00	491,51
1613,00	477,47
1614,00	484,49
1615,00	519,60
1616,00	557,05
1617,00	503,22
1618,00	493,85
1619,00	470,45
1620,00	482,15
1621,00	463,43
1622,00	451,72
1623,00	433,00
1624,00	465,77
1625,00	475,13
1626,00	468,11
1627,00	528,96
1628,00	442,36
1629,00	482,15
1630,00	465,77
1631,00	449,38
1632,00	510,24
1633,00	507,90
1634,00	486,83
1635,00	500,87
1636,00	486,83
1637,00	463,43
1638,00	503,22
1639,00	484,49
1640,00	468,11
1641,00	535,98
1642,00	470,45
1643,00	538,32
1644,00	442,36
1645,00	514,92
1646,00	456,40
1647,00	456,40
1648,00	440,02
1649,00	468,11
1650,00	458,74
1651,00	550,03
1652,00	489,17
1653,00	510,24
1654,00	489,17
1655,00	510,24
1656,00	545,34
1657,00	505,56
1658,00	500,87
1659,00	500,87
1660,00	496,19
1661,00	482,15
1662,00	463,43
1663,00	468,11
1664,00	526,62
1665,00	535,98
1666,00	479,81
1667,00	521,94
1668,00	491,51
1669,00	561,73
1670,00	409,59
1671,00	547,69
1672,00	503,22
1673,00	489,17
1674,00	526,62
1675,00	477,47
1676,00	486,83
1677,00	528,96
1678,00	507,90
1679,00	503,22
1680,00	470,45
1681,00	519,60
1682,00	498,53
1683,00	517,26
1684,00	454,06
1685,00	428,32
1686,00	472,79
1687,00	451,72
1688,00	414,27
1689,00	486,83
1690,00	507,90
1691,00	498,53
1692,00	491,51
1693,00	423,64
1694,00	571,09
1695,00	517,26
1696,00	477,47
1697,00	514,92
1698,00	531,30
1699,00	507,90
1700,00	475,13
1701,00	500,87
1702,00	456,40
1703,00	461,09
1704,00	524,28
1705,00	486,83
1706,00	482,15
1707,00	510,24
1708,00	468,11
1709,00	479,81
1710,00	507,90
1711,00	507,90
1712,00	550,03
1713,00	543,00
1714,00	491,51
1715,00	435,34
1716,00	550,03
1717,00	503,22
1718,00	491,51
1719,00	414,27
1720,00	472,79
1721,00	458,74
1722,00	479,81
1723,00	472,79
1724,00	463,43
1725,00	465,77
1726,00	526,62
1727,00	507,90
1728,00	500,87
1729,00	547,69
1730,00	519,60
1731,00	505,56
1732,00	456,40
1733,00	507,90
1734,00	503,22
1735,00	468,11
1736,00	451,72
1737,00	482,15
1738,00	484,49
1739,00	526,62
1740,00	486,83
1741,00	507,90
1742,00	400,23
1743,00	479,81
1744,00	496,19
1745,00	482,15
1746,00	545,34
1747,00	489,17
1748,00	472,79
1749,00	498,53
1750,00	454,06
1751,00	477,47
1752,00	470,45
1753,00	543,00
1754,00	482,15
1755,00	552,37
1756,00	543,00
1757,00	482,15
1758,00	514,92
1759,00	397,89
1760,00	479,81
1761,00	503,22
1762,00	521,94
1763,00	491,51
1764,00	430,66
1765,00	503,22
1766,00	493,85
1767,00	442,36
1768,00	489,17
1769,00	479,81
1770,00	517,26
1771,00	484,49
1772,00	461,09
1773,00	423,64
1774,00	500,87
1775,00	470,45
1776,00	486,83
1777,00	528,96
1778,00	510,24
1779,00	456,40
1780,00	437,68
1781,00	468,11
1782,00	493,85
1783,00	472,79
1784,00	486,83
1785,00	430,66
1786,00	505,56
1787,00	543,00
1788,00	465,77
1789,00	503,22
1790,00	482,15
1791,00	449,38
1792,00	456,40
1793,00	533,64
1794,00	500,87
1795,00	521,94
1796,00	484,49
1797,00	477,47
1798,00	437,68
1799,00	519,60
1800,00	463,43
1801,00	454,06
1802,00	528,96
1803,00	482,15
1804,00	503,22
1805,00	503,22
1806,00	507,90
1807,00	463,43
1808,00	589,82
1809,00	468,11
1810,00	533,64
1811,00	461,09
1812,00	510,24
1813,00	458,74
1814,00	528,96
1815,00	512,58
1816,00	557,05
1817,00	491,51
1818,00	482,15
1819,00	472,79
1820,00	486,83
1821,00	496,19
1822,00	493,85
1823,00	575,77
1824,00	521,94
1825,00	489,17
1826,00	470,45
1827,00	517,26
1828,00	477,47
1829,00	475,13
1830,00	472,79
1831,00	414,27
1832,00	489,17
1833,00	545,34
1834,00	528,96
1835,00	449,38
1836,00	543,00
1837,00	454,06
1838,00	512,58
1839,00	582,79
1840,00	524,28
1841,00	421,30
1842,00	524,28
1843,00	477,47
1844,00	507,90
1845,00	465,77
1846,00	463,43
1847,00	559,39
1848,00	433,00
1849,00	449,38
1850,00	449,38
1851,00	503,22
1852,00	430,66
1853,00	475,13
1854,00	531,30
1855,00	461,09
1856,00	603,86
1857,00	463,43
1858,00	433,00
1859,00	482,15
1860,00	484,49
1861,00	465,77
1862,00	543,00
1863,00	512,58
1864,00	496,19
1865,00	442,36
1866,00	489,17
1867,00	454,06
1868,00	496,19
1869,00	479,81
1870,00	475,13
1871,00	531,30
1872,00	557,05
1873,00	498,53
1874,00	449,38
1875,00	461,09
1876,00	458,74
1877,00	475,13
1878,00	521,94
1879,00	468,11
1880,00	503,22
1881,00	500,87
1882,00	486,83
1883,00	493,85
1884,00	524,28
1885,00	524,28
1886,00	449,38
1887,00	470,45
1888,00	451,72
1889,00	493,85
1890,00	531,30
1891,00	510,24
1892,00	477,47
1893,00	535,98
1894,00	489,17
1895,00	442,36
1896,00	482,15
1897,00	484,49
1898,00	458,74
1899,00	505,56
1900,00	486,83
1901,00	503,22
1902,00	500,87
1903,00	423,64
1904,00	503,22
1905,00	454,06
1906,00	472,79
1907,00	531,30
1908,00	449,38
1909,00	528,96
1910,00	489,17
1911,00	430,66
1912,00	451,72
1913,00	517,26
1914,00	505,56
1915,00	503,22
1916,00	496,19
1917,00	507,90
1918,00	465,77
1919,00	461,09
1920,00	430,66
1921,00	456,40
1922,00	526,62
1923,00	479,81
1924,00	472,79
1925,00	489,17
1926,00	470,45
1927,00	451,72
1928,00	475,13
1929,00	435,34
1930,00	531,30
1931,00	491,51
1932,00	496,19
1933,00	489,17
1934,00	496,19
1935,00	498,53
1936,00	465,77
1937,00	526,62
1938,00	489,17
1939,00	484,49
1940,00	465,77
1941,00	449,38
1942,00	463,43
1943,00	437,68
1944,00	477,47
1945,00	510,24
1946,00	472,79
1947,00	524,28
1948,00	543,00
1949,00	503,22
1950,00	461,09
1951,00	496,19
1952,00	543,00
1953,00	521,94
1954,00	472,79
1955,00	538,32
1956,00	477,47
1957,00	535,98
1958,00	526,62
1959,00	484,49
1960,00	486,83
1961,00	451,72
1962,00	514,92
1963,00	524,28
1964,00	526,62
1965,00	493,85
1966,00	456,40
1967,00	470,45
1968,00	503,22
1969,00	491,51
1970,00	461,09
1971,00	470,45
1972,00	463,43
1973,00	524,28
1974,00	482,15
1975,00	442,36
1976,00	505,56
1977,00	524,28
1978,00	517,26
1979,00	456,40
1980,00	475,13
1981,00	475,13
1982,00	437,68
1983,00	456,40
1984,00	533,64
1985,00	475,13
1986,00	482,15
1987,00	458,74
1988,00	493,85
1989,00	468,11
1990,00	503,22
1991,00	498,53
1992,00	498,53
1993,00	475,13
1994,00	496,19
1995,00	468,11
1996,00	486,83
1997,00	486,83
1998,00	491,51
1999,00	395,55
2000,00	540,66
2001,00	437,68
2002,00	510,24
2003,00	428,32
2004,00	526,62
2005,00	535,98
2006,00	500,87
2007,00	475,13
2008,00	524,28
2009,00	447,04
2010,00	500,87
2011,00	475,13
2012,00	491,51
2013,00	550,03
2014,00	514,92
2015,00	472,79
2016,00	468,11
2017,00	496,19
2018,00	472,79
2019,00	472,79
2020,00	484,49
2021,00	498,53
2022,00	449,38
2023,00	498,53
2024,00	491,51
2025,00	498,53
2026,00	503,22
2027,00	479,81
2028,00	458,74
2029,00	461,09
2030,00	484,49
2031,00	498,53
2032,00	496,19
2033,00	449,38
2034,00	472,79
2035,00	503,22
2036,00	500,87
2037,00	451,72
2038,00	449,38
2039,00	479,81
2040,00	514,92
2041,00	425,98
2042,00	479,81
2043,00	500,87
2044,00	498,53
2045,00	472,79
2046,00	458,74
2047,00	575,77
>>>>>End Processed Spectral Data<<<<<
